File: Output/ROCK_XRD/WAM39B_integrated/rampe2/wam39b_rampe_2_xrd_000016_integrated.dat
# == pyFAI calibration ==
# Distance Sample to Detector: 0.261615 m
# PONI: 2.023e-01, 2.348e-01 m
# Rotations: -0.026380 0.002005 0.000000 rad
#
# == Fit2d calibration ==
# Distance Sample-beamCenter: 261.707 mm
# Center: x=6119.331, y=5134.776 pix
# Tilt: 1.516 deg  TiltPlanRot: 4.347 deg
#
# Detector Rayonix SX165	 PixelSize= 3.950e-05, 3.950e-05 m
#    Detector has a mask: True
#    Detector has a dark current: False
#    detector has a flat field: False
#
# Wavelength: 1.12713e-10 m
# Mask applied: from detector
# Dark current applied: False
# Flat field applied: False
# Polarization factor: None
# Normalization factor: 1.0
# --> ROCK\\WAM39B_integrated\wam39b_rampe_2_xrd_000016_integrated.dat
#       2th_deg             I
  2.502596e+01    5.009759e+03
  2.511750e+01    2.053711e+04
  2.520905e+01    2.083103e+04
  2.530059e+01    2.096376e+04
  2.539213e+01    2.039596e+04
  2.548367e+01    2.039718e+04
  2.557521e+01    2.060066e+04
  2.566675e+01    2.091734e+04
  2.575829e+01    2.092503e+04
  2.584984e+01    2.066717e+04
  2.594138e+01    2.037972e+04
  2.603292e+01    2.014496e+04
  2.612446e+01    2.027464e+04
  2.621600e+01    2.188153e+04
  2.630754e+01    3.079088e+04
  2.639908e+01    5.106664e+04
  2.649063e+01    4.440035e+04
  2.658217e+01    2.379558e+04
  2.667371e+01    1.959540e+04
  2.676525e+01    1.844940e+04
  2.685679e+01    1.795048e+04
  2.694833e+01    1.760259e+04
  2.703988e+01    1.734946e+04
  2.713142e+01    1.715179e+04
  2.722296e+01    1.693102e+04
  2.731450e+01    1.674871e+04
  2.740604e+01    1.656827e+04
  2.749758e+01    1.646259e+04
  2.758912e+01    1.641763e+04
  2.768067e+01    1.641191e+04
  2.777221e+01    1.653395e+04
  2.786375e+01    1.716621e+04
  2.795529e+01    2.039886e+04
  2.804683e+01    2.045943e+04
  2.813837e+01    1.673678e+04
  2.822991e+01    1.579797e+04
  2.832146e+01    1.533203e+04
  2.841300e+01    1.495666e+04
  2.850454e+01    1.467251e+04
  2.859608e+01    1.447690e+04
  2.868762e+01    1.426058e+04
  2.877916e+01    1.411507e+04
  2.887070e+01    1.402361e+04
  2.896225e+01    1.390901e+04
  2.905379e+01    1.369074e+04
  2.914533e+01    1.340712e+04
  2.923687e+01    1.318054e+04
  2.932841e+01    1.296488e+04
  2.941995e+01    1.294455e+04
  2.951149e+01    1.405899e+04
  2.960304e+01    1.372367e+04
  2.969458e+01    1.237358e+04
  2.978612e+01    1.207418e+04
  2.987766e+01    1.190931e+04
  2.996920e+01    1.183145e+04
  3.006074e+01    1.181049e+04
  3.015228e+01    1.182805e+04
  3.024383e+01    1.188454e+04
  3.033537e+01    1.216577e+04
  3.042691e+01    1.320074e+04
  3.051845e+01    1.896260e+04
  3.060999e+01    4.900719e+04
  3.070153e+01    3.944448e+04
  3.079308e+01    1.749067e+04
  3.088462e+01    1.433640e+04
  3.097616e+01    2.320784e+04
  3.106770e+01    2.735055e+04
  3.115924e+01    1.354479e+04
  3.125078e+01    1.138315e+04
  3.134232e+01    1.090091e+04
  3.143387e+01    1.068284e+04
  3.152541e+01    1.053920e+04
  3.161695e+01    1.042006e+04
  3.170849e+01    1.032914e+04
  3.180003e+01    1.024725e+04
  3.189157e+01    1.018850e+04
  3.198311e+01    1.012927e+04
  3.207466e+01    1.006939e+04
  3.216620e+01    1.001018e+04
  3.225774e+01    9.977669e+03
  3.234928e+01    1.025515e+04
  3.244082e+01    1.166672e+04
  3.253236e+01    1.044404e+04
  3.262390e+01    9.897245e+03
  3.271545e+01    9.812202e+03
  3.280699e+01    9.698559e+03
  3.289853e+01    9.566719e+03
  3.299007e+01    9.452763e+03
  3.308161e+01    9.366396e+03
  3.317315e+01    9.318888e+03
  3.326469e+01    9.279023e+03
  3.335624e+01    9.254291e+03
  3.344778e+01    9.250232e+03
  3.353932e+01    9.302287e+03
  3.363086e+01    9.640646e+03
  3.372240e+01    1.281663e+04
  3.381394e+01    2.379011e+04
  3.390549e+01    1.298251e+04
  3.399703e+01    9.487258e+03
  3.408857e+01    9.004194e+03
  3.418011e+01    8.850057e+03
  3.427165e+01    8.766084e+03
  3.436319e+01    8.717203e+03
  3.445473e+01    8.674651e+03
  3.454628e+01    8.656861e+03
  3.463782e+01    8.625862e+03
  3.472936e+01    8.620636e+03
  3.482090e+01    8.576414e+03
  3.491244e+01    8.522001e+03
  3.500398e+01    8.428283e+03
  3.509552e+01    8.337911e+03
  3.518707e+01    8.268271e+03
  3.527861e+01    8.215043e+03
  3.537015e+01    8.138767e+03
  3.546169e+01    8.086718e+03
  3.555323e+01    8.048148e+03
  3.564477e+01    8.006374e+03
  3.573631e+01    7.985789e+03
  3.582786e+01    7.970390e+03
  3.591940e+01    7.973487e+03
  3.601094e+01    7.992536e+03
  3.610248e+01    8.025544e+03
  3.619402e+01    8.132962e+03
  3.628556e+01    8.760960e+03
  3.637710e+01    1.310790e+04
  3.646865e+01    1.093030e+04
  3.656019e+01    8.432728e+03
  3.665173e+01    8.154623e+03
  3.674327e+01    8.118687e+03
  3.683481e+01    8.129174e+03
  3.692635e+01    8.173940e+03
  3.701790e+01    8.213388e+03
  3.710944e+01    8.302617e+03
  3.720098e+01    8.455474e+03
  3.729252e+01    8.722818e+03
  3.738406e+01    9.358663e+03
  3.747560e+01    1.188493e+04
  3.756714e+01    3.587675e+04
  3.765869e+01    7.415112e+04
  3.775023e+01    2.057661e+04
  3.784177e+01    1.059667e+04
  3.793331e+01    9.164480e+03
  3.802485e+01    8.676328e+03
  3.811639e+01    8.490024e+03
  3.820793e+01    8.369461e+03
  3.829948e+01    8.312496e+03
  3.839102e+01    8.271762e+03
  3.848256e+01    8.263274e+03
  3.857410e+01    8.280568e+03
  3.866564e+01    8.344703e+03
  3.875718e+01    9.011629e+03
  3.884872e+01    1.085949e+04
  3.894027e+01    8.813765e+03
  3.903181e+01    8.264664e+03
  3.912335e+01    8.171565e+03
  3.921489e+01    8.124177e+03
  3.930643e+01    8.086187e+03
  3.939797e+01    8.085748e+03
  3.948951e+01    8.052409e+03
  3.958106e+01    8.008555e+03
  3.967260e+01    7.964954e+03
  3.976414e+01    7.924615e+03
  3.985568e+01    7.940890e+03
  3.994722e+01    8.214681e+03
  4.003876e+01    8.463693e+03
  4.013031e+01    7.952814e+03
  4.022185e+01    7.843672e+03
  4.031339e+01    7.814676e+03
  4.040493e+01    7.794832e+03
  4.049647e+01    7.770012e+03
  4.058801e+01    7.755824e+03
  4.067955e+01    7.756024e+03
  4.077110e+01    7.789432e+03
  4.086264e+01    7.828187e+03
  4.095418e+01    7.964748e+03
  4.104572e+01    8.969149e+03
  4.113726e+01    1.488974e+04
  4.122880e+01    1.084718e+04
  4.132034e+01    8.198988e+03
  4.141189e+01    7.891634e+03
  4.150343e+01    7.817110e+03
  4.159497e+01    7.770280e+03
  4.168651e+01    7.738923e+03
  4.177805e+01    7.708647e+03
  4.186959e+01    7.701787e+03
  4.196113e+01    7.712341e+03
  4.205268e+01    7.745130e+03
  4.214422e+01    7.854255e+03
  4.223576e+01    8.967146e+03
  4.232730e+01    8.547797e+03
  4.241884e+01    7.701053e+03
  4.251038e+01    7.605345e+03
  4.260192e+01    7.566970e+03
  4.269347e+01    7.560158e+03
  4.278501e+01    7.536113e+03
  4.287655e+01    7.545716e+03
  4.296809e+01    7.568084e+03
  4.305963e+01    7.621081e+03
  4.315117e+01    7.741942e+03
  4.324272e+01    8.397660e+03
  4.333426e+01    1.313522e+04
  4.342580e+01    1.095229e+04
  4.351734e+01    8.197904e+03
  4.360888e+01    8.159296e+03
  4.370042e+01    9.205183e+03
  4.379196e+01    1.743263e+04
  4.388351e+01    2.548776e+04
  4.397505e+01    1.255364e+04
  4.406659e+01    8.864066e+03
  4.415813e+01    8.365445e+03
  4.424967e+01    8.895025e+03
  4.434121e+01    1.461049e+04
  4.443275e+01    3.381732e+04
  4.452430e+01    1.479296e+04
  4.461584e+01    8.653772e+03
  4.470738e+01    7.826836e+03
  4.479892e+01    7.601899e+03
  4.489046e+01    7.493938e+03
  4.498200e+01    7.467815e+03
  4.507354e+01    7.435544e+03
  4.516509e+01    7.448403e+03
  4.525663e+01    7.532018e+03
  4.534817e+01    8.094747e+03
  4.543971e+01    1.289503e+04
  4.553125e+01    1.223262e+04
  4.562279e+01    7.957848e+03
  4.571433e+01    7.453876e+03
  4.580588e+01    7.347192e+03
  4.589742e+01    7.308208e+03
  4.598896e+01    7.276647e+03
  4.608050e+01    7.228624e+03
  4.617204e+01    7.208073e+03
  4.626358e+01    7.221206e+03
  4.635513e+01    7.346233e+03
  4.644667e+01    8.384667e+03
  4.653821e+01    9.264147e+03
  4.662975e+01    7.638785e+03
  4.672129e+01    7.397629e+03
  4.681283e+01    7.361833e+03
  4.690437e+01    7.340187e+03
  4.699592e+01    7.356795e+03
  4.708746e+01    7.413555e+03
  4.717900e+01    7.467892e+03
  4.727054e+01    7.553488e+03
  4.736208e+01    7.726137e+03
  4.745362e+01    8.542869e+03
  4.754516e+01    9.451603e+03
  4.763671e+01    8.545099e+03
  4.772825e+01    8.211515e+03
  4.781979e+01    7.767990e+03
  4.788844e+01    3.150087e+03