File: Output/ROCK_XRD/WAM39B_integrated/rampe2/wam39b_rampe_2_xrd_000014_integrated.dat
# == pyFAI calibration ==
# Distance Sample to Detector: 0.261615 m
# PONI: 2.023e-01, 2.348e-01 m
# Rotations: -0.026380 0.002005 0.000000 rad
#
# == Fit2d calibration ==
# Distance Sample-beamCenter: 261.707 mm
# Center: x=6119.331, y=5134.776 pix
# Tilt: 1.516 deg  TiltPlanRot: 4.347 deg
#
# Detector Rayonix SX165	 PixelSize= 3.950e-05, 3.950e-05 m
#    Detector has a mask: True
#    Detector has a dark current: False
#    detector has a flat field: False
#
# Wavelength: 1.12713e-10 m
# Mask applied: from detector
# Dark current applied: False
# Flat field applied: False
# Polarization factor: None
# Normalization factor: 1.0
# --> ROCK\\WAM39B_integrated\wam39b_rampe_2_xrd_000014_integrated.dat
#       2th_deg             I
  2.502596e+01    4.165218e+03
  2.511750e+01    1.714670e+04
  2.520905e+01    1.740802e+04
  2.530059e+01    1.750938e+04
  2.539213e+01    1.705857e+04
  2.548367e+01    1.708616e+04
  2.557521e+01    1.725372e+04
  2.566675e+01    1.751032e+04
  2.575829e+01    1.749560e+04
  2.584984e+01    1.725702e+04
  2.594138e+01    1.703195e+04
  2.603292e+01    1.687842e+04
  2.612446e+01    1.716614e+04
  2.621600e+01    1.918286e+04
  2.630754e+01    2.976767e+04
  2.639908e+01    4.625582e+04
  2.649063e+01    3.131377e+04
  2.658217e+01    1.853109e+04
  2.667371e+01    1.611693e+04
  2.676525e+01    1.534538e+04
  2.685679e+01    1.499073e+04
  2.694833e+01    1.471250e+04
  2.703988e+01    1.450558e+04
  2.713142e+01    1.434655e+04
  2.722296e+01    1.416604e+04
  2.731450e+01    1.401868e+04
  2.740604e+01    1.387370e+04
  2.749758e+01    1.378674e+04
  2.758912e+01    1.376723e+04
  2.768067e+01    1.376463e+04
  2.777221e+01    1.389482e+04
  2.786375e+01    1.465898e+04
  2.795529e+01    1.806885e+04
  2.804683e+01    1.602961e+04
  2.813837e+01    1.376731e+04
  2.822991e+01    1.315673e+04
  2.832146e+01    1.281804e+04
  2.841300e+01    1.252404e+04
  2.850454e+01    1.231731e+04
  2.859608e+01    1.213680e+04
  2.868762e+01    1.196601e+04
  2.877916e+01    1.186883e+04
  2.887070e+01    1.179108e+04
  2.896225e+01    1.169798e+04
  2.905379e+01    1.148443e+04
  2.914533e+01    1.124921e+04
  2.923687e+01    1.105958e+04
  2.932841e+01    1.089902e+04
  2.941995e+01    1.100770e+04
  2.951149e+01    1.220348e+04
  2.960304e+01    1.111670e+04
  2.969458e+01    1.034132e+04
  2.978612e+01    1.013259e+04
  2.987766e+01    1.002086e+04
  2.996920e+01    9.961282e+03
  3.006074e+01    9.963849e+03
  3.015228e+01    9.977789e+03
  3.024383e+01    1.005972e+04
  3.033537e+01    1.040697e+04
  3.042691e+01    1.176547e+04
  3.051845e+01    2.031181e+04
  3.060999e+01    4.672121e+04
  3.070153e+01    2.530083e+04
  3.079308e+01    1.319887e+04
  3.088462e+01    1.266309e+04
  3.097616e+01    2.394463e+04
  3.106770e+01    1.867462e+04
  3.115924e+01    1.054282e+04
  3.125078e+01    9.438836e+03
  3.134232e+01    9.127284e+03
  3.143387e+01    8.970723e+03
  3.152541e+01    8.860488e+03
  3.161695e+01    8.757237e+03
  3.170849e+01    8.693729e+03
  3.180003e+01    8.634526e+03
  3.189157e+01    8.569830e+03
  3.198311e+01    8.522776e+03
  3.207466e+01    8.469729e+03
  3.216620e+01    8.428753e+03
  3.225774e+01    8.430794e+03
  3.234928e+01    8.919820e+03
  3.244082e+01    9.787095e+03
  3.253236e+01    8.570435e+03
  3.262390e+01    8.327583e+03
  3.271545e+01    8.259295e+03
  3.280699e+01    8.146133e+03
  3.289853e+01    8.040698e+03
  3.299007e+01    7.952965e+03
  3.308161e+01    7.892753e+03
  3.317315e+01    7.850458e+03
  3.326469e+01    7.817688e+03
  3.335624e+01    7.801514e+03
  3.344778e+01    7.803060e+03
  3.353932e+01    7.900336e+03
  3.363086e+01    8.429826e+03
  3.372240e+01    1.367293e+04
  3.381394e+01    1.855507e+04
  3.390549e+01    9.351281e+03
  3.399703e+01    7.828739e+03
  3.408857e+01    7.551368e+03
  3.418011e+01    7.433418e+03
  3.427165e+01    7.384349e+03
  3.436319e+01    7.354589e+03
  3.445473e+01    7.321709e+03
  3.454628e+01    7.301437e+03
  3.463782e+01    7.276088e+03
  3.472936e+01    7.257398e+03
  3.482090e+01    7.215215e+03
  3.491244e+01    7.153130e+03
  3.500398e+01    7.073572e+03
  3.509552e+01    7.010900e+03
  3.518707e+01    6.962222e+03
  3.527861e+01    6.920097e+03
  3.537015e+01    6.858054e+03
  3.546169e+01    6.830524e+03
  3.555323e+01    6.783455e+03
  3.564477e+01    6.754224e+03
  3.573631e+01    6.734559e+03
  3.582786e+01    6.726522e+03
  3.591940e+01    6.732036e+03
  3.601094e+01    6.753588e+03
  3.610248e+01    6.788836e+03
  3.619402e+01    6.942335e+03
  3.628556e+01    8.083322e+03
  3.637710e+01    1.168975e+04
  3.646865e+01    8.053479e+03
  3.656019e+01    7.002413e+03
  3.665173e+01    6.863748e+03
  3.674327e+01    6.853647e+03
  3.683481e+01    6.873910e+03
  3.692635e+01    6.910709e+03
  3.701790e+01    6.957728e+03
  3.710944e+01    7.051407e+03
  3.720098e+01    7.197273e+03
  3.729252e+01    7.489392e+03
  3.738406e+01    8.285381e+03
  3.747560e+01    1.256185e+04
  3.756714e+01    5.004671e+04
  3.765869e+01    4.662966e+04
  3.775023e+01    1.229513e+04
  3.784177e+01    8.340969e+03
  3.793331e+01    7.561548e+03
  3.802485e+01    7.250553e+03
  3.811639e+01    7.123119e+03
  3.820793e+01    7.033721e+03
  3.829948e+01    6.995203e+03
  3.839102e+01    6.969674e+03
  3.848256e+01    6.968659e+03
  3.857410e+01    6.993654e+03
  3.866564e+01    7.101594e+03
  3.875718e+01    8.312317e+03
  3.884872e+01    8.682881e+03
  3.894027e+01    7.150511e+03
  3.903181e+01    6.927862e+03
  3.912335e+01    6.886183e+03
  3.921489e+01    6.843919e+03
  3.930643e+01    6.818864e+03
  3.939797e+01    6.818430e+03
  3.948951e+01    6.777587e+03
  3.958106e+01    6.738297e+03
  3.967260e+01    6.706002e+03
  3.976414e+01    6.680669e+03
  3.985568e+01    6.722291e+03
  3.994722e+01    7.138575e+03
  4.003876e+01    6.954069e+03
  4.013031e+01    6.659132e+03
  4.022185e+01    6.611131e+03
  4.031339e+01    6.585444e+03
  4.040493e+01    6.571558e+03
  4.049647e+01    6.560774e+03
  4.058801e+01    6.551662e+03
  4.067955e+01    6.552773e+03
  4.077110e+01    6.566940e+03
  4.086264e+01    6.626729e+03
  4.095418e+01    6.853583e+03
  4.104572e+01    8.963109e+03
  4.113726e+01    1.259107e+04
  4.122880e+01    7.741620e+03
  4.132034e+01    6.778160e+03
  4.141189e+01    6.631238e+03
  4.150343e+01    6.569641e+03
  4.159497e+01    6.545395e+03
  4.168651e+01    6.527895e+03
  4.177805e+01    6.501852e+03
  4.186959e+01    6.491709e+03
  4.196113e+01    6.510384e+03
  4.205268e+01    6.542087e+03
  4.214422e+01    6.814547e+03
  4.223576e+01    7.803510e+03
  4.232730e+01    6.799547e+03
  4.241884e+01    6.455426e+03
  4.251038e+01    6.411859e+03
  4.260192e+01    6.395142e+03
  4.269347e+01    6.381517e+03
  4.278501e+01    6.368147e+03
  4.287655e+01    6.374729e+03
  4.296809e+01    6.410494e+03
  4.305963e+01    6.480461e+03
  4.315117e+01    6.640662e+03
  4.324272e+01    8.088001e+03
  4.333426e+01    1.171119e+04
  4.342580e+01    7.760345e+03
  4.351734e+01    6.842405e+03
  4.360888e+01    7.093468e+03
  4.370042e+01    9.251806e+03
  4.379196e+01    2.077474e+04
  4.388351e+01    1.686499e+04
  4.397505e+01    8.629155e+03
  4.406659e+01    7.200300e+03
  4.415813e+01    7.139303e+03
  4.424967e+01    8.290154e+03
  4.434121e+01    2.003199e+04
  4.443275e+01    2.414211e+04
  4.452430e+01    8.990691e+03
  4.461584e+01    6.921009e+03
  4.470738e+01    6.514336e+03
  4.479892e+01    6.380229e+03
  4.489046e+01    6.306207e+03
  4.498200e+01    6.275122e+03
  4.507354e+01    6.277146e+03
  4.516509e+01    6.570396e+03
  4.525663e+01    6.450381e+03
  4.534817e+01    7.716261e+03
  4.543971e+01    1.247158e+04
  4.553125e+01    8.129974e+03
  4.562279e+01    6.433323e+03
  4.571433e+01    6.231265e+03
  4.580588e+01    6.174664e+03
  4.589742e+01    6.145724e+03
  4.598896e+01    6.110062e+03
  4.608050e+01    6.084102e+03
  4.617204e+01    6.073054e+03
  4.626358e+01    6.115444e+03
  4.635513e+01    6.366024e+03
  4.644667e+01    7.885453e+03
  4.653821e+01    7.095366e+03
  4.662975e+01    6.287250e+03
  4.672129e+01    6.199696e+03
  4.681283e+01    6.180607e+03
  4.690437e+01    6.166671e+03
  4.699592e+01    6.198032e+03
  4.708746e+01    6.249477e+03
  4.717900e+01    6.290134e+03
  4.727054e+01    6.374670e+03
  4.736208e+01    6.622678e+03
  4.745362e+01    7.761882e+03
  4.754516e+01    7.467933e+03
  4.763671e+01    7.078947e+03
  4.772825e+01    6.883258e+03
  4.781979e+01    6.551981e+03
  4.788844e+01    2.645345e+03