File: Output/ROCK_XRD/WAM39B_integrated/rampe2/wam39b_rampe_2_xrd_000001_integrated.dat
# == pyFAI calibration ==
# Distance Sample to Detector: 0.261615 m
# PONI: 2.023e-01, 2.348e-01 m
# Rotations: -0.026380 0.002005 0.000000 rad
#
# == Fit2d calibration ==
# Distance Sample-beamCenter: 261.707 mm
# Center: x=6119.331, y=5134.776 pix
# Tilt: 1.516 deg  TiltPlanRot: 4.347 deg
#
# Detector Rayonix SX165	 PixelSize= 3.950e-05, 3.950e-05 m
#    Detector has a mask: True
#    Detector has a dark current: False
#    detector has a flat field: False
#
# Wavelength: 1.12713e-10 m
# Mask applied: from detector
# Dark current applied: False
# Flat field applied: False
# Polarization factor: None
# Normalization factor: 1.0
# --> ROCK\\WAM39B_integrated\wam39b_rampe_2_xrd_000001_integrated.dat
#       2th_deg             I
  2.502596e+01    4.252402e+03
  2.511750e+01    1.747832e+04
  2.520905e+01    1.773713e+04
  2.530059e+01    1.781903e+04
  2.539213e+01    1.728141e+04
  2.548367e+01    1.719626e+04
  2.557521e+01    1.710013e+04
  2.566675e+01    1.702855e+04
  2.575829e+01    1.683316e+04
  2.584984e+01    1.669060e+04
  2.594138e+01    1.677487e+04
  2.603292e+01    1.721966e+04
  2.612446e+01    1.879588e+04
  2.621600e+01    2.807891e+04
  2.630754e+01    5.754646e+04
  2.639908e+01    2.912372e+04
  2.649063e+01    1.833529e+04
  2.658217e+01    1.639139e+04
  2.667371e+01    1.574437e+04
  2.676525e+01    1.539623e+04
  2.685679e+01    1.513609e+04
  2.694833e+01    1.492419e+04
  2.703988e+01    1.474820e+04
  2.713142e+01    1.460198e+04
  2.722296e+01    1.441159e+04
  2.731450e+01    1.425895e+04
  2.740604e+01    1.409031e+04
  2.749758e+01    1.398457e+04
  2.758912e+01    1.391139e+04
  2.768067e+01    1.387438e+04
  2.777221e+01    1.403986e+04
  2.786375e+01    1.605889e+04
  2.795529e+01    1.753540e+04
  2.804683e+01    1.402186e+04
  2.813837e+01    1.324827e+04
  2.822991e+01    1.293976e+04
  2.832146e+01    1.274561e+04
  2.841300e+01    1.255817e+04
  2.850454e+01    1.241713e+04
  2.859608e+01    1.225883e+04
  2.868762e+01    1.207999e+04
  2.877916e+01    1.191009e+04
  2.887070e+01    1.176182e+04
  2.896225e+01    1.158526e+04
  2.905379e+01    1.140933e+04
  2.914533e+01    1.125390e+04
  2.923687e+01    1.114779e+04
  2.932841e+01    1.111974e+04
  2.941995e+01    1.191779e+04
  2.951149e+01    1.202122e+04
  2.960304e+01    1.075717e+04
  2.969458e+01    1.046400e+04
  2.978612e+01    1.032671e+04
  2.987766e+01    1.023098e+04
  2.996920e+01    1.019302e+04
  3.006074e+01    1.023291e+04
  3.015228e+01    1.034325e+04
  3.024383e+01    1.076044e+04
  3.033537e+01    1.311586e+04
  3.042691e+01    3.497524e+04
  3.051845e+01    5.440664e+04
  3.060999e+01    1.615254e+04
  3.070153e+01    1.129076e+04
  3.079308e+01    1.132417e+04
  3.088462e+01    1.852040e+04
  3.097616e+01    2.410872e+04
  3.106770e+01    1.182174e+04
  3.115924e+01    9.796168e+03
  3.125078e+01    9.373960e+03
  3.134232e+01    9.190243e+03
  3.143387e+01    9.077290e+03
  3.152541e+01    8.983923e+03
  3.161695e+01    8.890789e+03
  3.170849e+01    8.820746e+03
  3.180003e+01    8.751676e+03
  3.189157e+01    8.695414e+03
  3.198311e+01    8.635972e+03
  3.207466e+01    8.581421e+03
  3.216620e+01    8.565481e+03
  3.225774e+01    8.777727e+03
  3.234928e+01    9.916472e+03
  3.244082e+01    8.904881e+03
  3.253236e+01    8.390612e+03
  3.262390e+01    8.276964e+03
  3.271545e+01    8.215464e+03
  3.280699e+01    8.148313e+03
  3.289853e+01    8.098318e+03
  3.299007e+01    8.058282e+03
  3.308161e+01    8.008335e+03
  3.317315e+01    7.977285e+03
  3.326469e+01    7.956534e+03
  3.335624e+01    7.952249e+03
  3.344778e+01    8.007334e+03
  3.353932e+01    8.322347e+03
  3.363086e+01    1.119168e+04
  3.372240e+01    2.011379e+04
  3.381394e+01    1.086466e+04
  3.390549e+01    8.136040e+03
  3.399703e+01    7.734821e+03
  3.408857e+01    7.600958e+03
  3.418011e+01    7.524111e+03
  3.427165e+01    7.462706e+03
  3.436319e+01    7.405629e+03
  3.445473e+01    7.356099e+03
  3.454628e+01    7.309838e+03
  3.463782e+01    7.266411e+03
  3.472936e+01    7.220751e+03
  3.482090e+01    7.185011e+03
  3.491244e+01    7.145996e+03
  3.500398e+01    7.110259e+03
  3.509552e+01    7.086172e+03
  3.518707e+01    7.057204e+03
  3.527861e+01    7.028822e+03
  3.537015e+01    6.978426e+03
  3.546169e+01    6.936256e+03
  3.555323e+01    6.907379e+03
  3.564477e+01    6.881756e+03
  3.573631e+01    6.872514e+03
  3.582786e+01    6.854745e+03
  3.591940e+01    6.862820e+03
  3.601094e+01    6.899269e+03
  3.610248e+01    6.998649e+03
  3.619402e+01    7.691106e+03
  3.628556e+01    1.146542e+04
  3.637710e+01    8.840387e+03
  3.646865e+01    7.164132e+03
  3.656019e+01    7.010178e+03
  3.665173e+01    6.975122e+03
  3.674327e+01    6.993646e+03
  3.683481e+01    7.018667e+03
  3.692635e+01    7.074878e+03
  3.701790e+01    7.158184e+03
  3.710944e+01    7.290156e+03
  3.720098e+01    7.546109e+03
  3.729252e+01    8.181725e+03
  3.738406e+01    1.106492e+04
  3.747560e+01    3.856278e+04
  3.756714e+01    5.604665e+04
  3.765869e+01    1.449396e+04
  3.775023e+01    8.721347e+03
  3.784177e+01    7.766566e+03
  3.793331e+01    7.445350e+03
  3.802485e+01    7.270808e+03
  3.811639e+01    7.192018e+03
  3.820793e+01    7.115455e+03
  3.829948e+01    7.099014e+03
  3.839102e+01    7.072654e+03
  3.848256e+01    7.090880e+03
  3.857410e+01    7.177079e+03
  3.866564e+01    8.024281e+03
  3.875718e+01    9.015828e+03
  3.884872e+01    7.358619e+03
  3.894027e+01    7.079156e+03
  3.903181e+01    7.015442e+03
  3.912335e+01    6.987771e+03
  3.921489e+01    6.972859e+03
  3.930643e+01    6.955100e+03
  3.939797e+01    6.938233e+03
  3.948951e+01    6.894854e+03
  3.958106e+01    6.870264e+03
  3.967260e+01    6.847594e+03
  3.976414e+01    6.863840e+03
  3.985568e+01    7.195949e+03
  3.994722e+01    7.173071e+03
  4.003876e+01    6.815540e+03
  4.013031e+01    6.767876e+03
  4.022185e+01    6.740881e+03
  4.031339e+01    6.729947e+03
  4.040493e+01    6.716366e+03
  4.049647e+01    6.699313e+03
  4.058801e+01    6.687832e+03
  4.067955e+01    6.694129e+03
  4.077110e+01    6.736724e+03
  4.086264e+01    6.912807e+03
  4.095418e+01    8.549736e+03
  4.104572e+01    1.276520e+04
  4.113726e+01    8.033394e+03
  4.122880e+01    6.838596e+03
  4.132034e+01    6.675214e+03
  4.141189e+01    6.628391e+03
  4.150343e+01    6.589676e+03
  4.159497e+01    6.600704e+03
  4.168651e+01    6.598693e+03
  4.177805e+01    6.573381e+03
  4.186959e+01    6.570522e+03
  4.196113e+01    6.597500e+03
  4.205268e+01    6.834609e+03
  4.214422e+01    7.838130e+03
  4.223576e+01    6.954018e+03
  4.232730e+01    6.582028e+03
  4.241884e+01    6.562148e+03
  4.251038e+01    6.538533e+03
  4.260192e+01    6.520708e+03
  4.269347e+01    6.531403e+03
  4.278501e+01    6.532761e+03
  4.287655e+01    6.565541e+03
  4.296809e+01    6.639896e+03
  4.305963e+01    6.779270e+03
  4.315117e+01    8.040412e+03
  4.324272e+01    1.179710e+04
  4.333426e+01    8.050805e+03
  4.342580e+01    7.254178e+03
  4.351734e+01    9.126948e+03
  4.360888e+01    2.477755e+04
  4.370042e+01    1.551304e+04
  4.379196e+01    7.698471e+03
  4.388351e+01    6.902427e+03
  4.397505e+01    6.814314e+03
  4.406659e+01    6.986688e+03
  4.415813e+01    8.124255e+03
  4.424967e+01    1.924892e+04
  4.434121e+01    2.416479e+04
  4.443275e+01    9.055287e+03
  4.452430e+01    7.030165e+03
  4.461584e+01    6.662397e+03
  4.470738e+01    6.514571e+03
  4.479892e+01    6.451559e+03
  4.489046e+01    6.404948e+03
  4.498200e+01    6.411748e+03
  4.507354e+01    6.440565e+03
  4.516509e+01    6.574142e+03
  4.525663e+01    7.816826e+03
  4.534817e+01    1.240567e+04
  4.543971e+01    8.123708e+03
  4.553125e+01    6.557768e+03
  4.562279e+01    6.320185e+03
  4.571433e+01    6.275229e+03
  4.580588e+01    6.233712e+03
  4.589742e+01    6.207121e+03
  4.598896e+01    6.184129e+03
  4.608050e+01    6.175768e+03
  4.617204e+01    6.204988e+03
  4.626358e+01    6.452926e+03
  4.635513e+01    7.957979e+03
  4.644667e+01    7.039659e+03
  4.653821e+01    6.285344e+03
  4.662975e+01    6.216836e+03
  4.672129e+01    6.200958e+03
  4.681283e+01    6.211125e+03
  4.690437e+01    6.237007e+03
  4.699592e+01    6.280916e+03
  4.708746e+01    6.349373e+03
  4.717900e+01    6.406356e+03
  4.727054e+01    6.651264e+03
  4.736208e+01    7.713702e+03
  4.745362e+01    7.257038e+03
  4.754516e+01    6.984653e+03
  4.763671e+01    7.150282e+03
  4.772825e+01    7.002821e+03
  4.781979e+01    6.669979e+03
  4.788844e+01    2.678589e+03