File: Output/ROCK_XRD/WAM39B_integrated/rampe2/wam39b_rampe_2_xrd_000015_integrated.dat
# == pyFAI calibration ==
# Distance Sample to Detector: 0.261615 m
# PONI: 2.023e-01, 2.348e-01 m
# Rotations: -0.026380 0.002005 0.000000 rad
#
# == Fit2d calibration ==
# Distance Sample-beamCenter: 261.707 mm
# Center: x=6119.331, y=5134.776 pix
# Tilt: 1.516 deg  TiltPlanRot: 4.347 deg
#
# Detector Rayonix SX165	 PixelSize= 3.950e-05, 3.950e-05 m
#    Detector has a mask: True
#    Detector has a dark current: False
#    detector has a flat field: False
#
# Wavelength: 1.12713e-10 m
# Mask applied: from detector
# Dark current applied: False
# Flat field applied: False
# Polarization factor: None
# Normalization factor: 1.0
# --> ROCK\\WAM39B_integrated\wam39b_rampe_2_xrd_000015_integrated.dat
#       2th_deg             I
  2.502596e+01    4.556404e+03
  2.511750e+01    1.876803e+04
  2.520905e+01    1.904955e+04
  2.530059e+01    1.914697e+04
  2.539213e+01    1.863374e+04
  2.548367e+01    1.866740e+04
  2.557521e+01    1.883669e+04
  2.566675e+01    1.913301e+04
  2.575829e+01    1.911712e+04
  2.584984e+01    1.889020e+04
  2.594138e+01    1.861580e+04
  2.603292e+01    1.842594e+04
  2.612446e+01    1.860698e+04
  2.621600e+01    2.034868e+04
  2.630754e+01    2.995126e+04
  2.639908e+01    4.845248e+04
  2.649063e+01    3.759154e+04
  2.658217e+01    2.097223e+04
  2.667371e+01    1.774574e+04
  2.676525e+01    1.682423e+04
  2.685679e+01    1.638948e+04
  2.694833e+01    1.609988e+04
  2.703988e+01    1.585103e+04
  2.713142e+01    1.570336e+04
  2.722296e+01    1.548779e+04
  2.731450e+01    1.532424e+04
  2.740604e+01    1.515817e+04
  2.749758e+01    1.506213e+04
  2.758912e+01    1.502567e+04
  2.768067e+01    1.501610e+04
  2.777221e+01    1.513861e+04
  2.786375e+01    1.581179e+04
  2.795529e+01    1.917474e+04
  2.804683e+01    1.815284e+04
  2.813837e+01    1.517073e+04
  2.822991e+01    1.441894e+04
  2.832146e+01    1.401251e+04
  2.841300e+01    1.368886e+04
  2.850454e+01    1.345315e+04
  2.859608e+01    1.324283e+04
  2.868762e+01    1.306508e+04
  2.877916e+01    1.293908e+04
  2.887070e+01    1.286615e+04
  2.896225e+01    1.275693e+04
  2.905379e+01    1.254545e+04
  2.914533e+01    1.227962e+04
  2.923687e+01    1.207354e+04
  2.932841e+01    1.189207e+04
  2.941995e+01    1.190971e+04
  2.951149e+01    1.309300e+04
  2.960304e+01    1.238445e+04
  2.969458e+01    1.131306e+04
  2.978612e+01    1.105843e+04
  2.987766e+01    1.092468e+04
  2.996920e+01    1.086683e+04
  3.006074e+01    1.084298e+04
  3.015228e+01    1.086977e+04
  3.024383e+01    1.093015e+04
  3.033537e+01    1.124001e+04
  3.042691e+01    1.238646e+04
  3.051845e+01    1.916622e+04
  3.060999e+01    4.834254e+04
  3.070153e+01    3.195617e+04
  3.079308e+01    1.516166e+04
  3.088462e+01    1.334228e+04
  3.097616e+01    2.345004e+04
  3.106770e+01    2.295050e+04
  3.115924e+01    1.193551e+04
  3.125078e+01    1.037666e+04
  3.134232e+01    9.977834e+03
  3.143387e+01    9.803343e+03
  3.152541e+01    9.662192e+03
  3.161695e+01    9.572274e+03
  3.170849e+01    9.484130e+03
  3.180003e+01    9.409548e+03
  3.189157e+01    9.350901e+03
  3.198311e+01    9.292398e+03
  3.207466e+01    9.243188e+03
  3.216620e+01    9.195812e+03
  3.225774e+01    9.181921e+03
  3.234928e+01    9.536814e+03
  3.244082e+01    1.072854e+04
  3.253236e+01    9.462854e+03
  3.262390e+01    9.072114e+03
  3.271545e+01    9.008970e+03
  3.280699e+01    8.903119e+03
  3.289853e+01    8.772532e+03
  3.299007e+01    8.662246e+03
  3.308161e+01    8.600391e+03
  3.317315e+01    8.554494e+03
  3.326469e+01    8.521000e+03
  3.335624e+01    8.497036e+03
  3.344778e+01    8.499040e+03
  3.353932e+01    8.570219e+03
  3.363086e+01    8.980317e+03
  3.372240e+01    1.296226e+04
  3.381394e+01    2.145263e+04
  3.390549e+01    1.100915e+04
  3.399703e+01    8.626562e+03
  3.408857e+01    8.250302e+03
  3.418011e+01    8.117354e+03
  3.427165e+01    8.047181e+03
  3.436319e+01    8.010695e+03
  3.445473e+01    7.980898e+03
  3.454628e+01    7.946351e+03
  3.463782e+01    7.932006e+03
  3.472936e+01    7.913300e+03
  3.482090e+01    7.867929e+03
  3.491244e+01    7.810308e+03
  3.500398e+01    7.727186e+03
  3.509552e+01    7.652240e+03
  3.518707e+01    7.587323e+03
  3.527861e+01    7.544782e+03
  3.537015e+01    7.478890e+03
  3.546169e+01    7.435465e+03
  3.555323e+01    7.390651e+03
  3.564477e+01    7.361789e+03
  3.573631e+01    7.335659e+03
  3.582786e+01    7.320938e+03
  3.591940e+01    7.322072e+03
  3.601094e+01    7.344956e+03
  3.610248e+01    7.379231e+03
  3.619402e+01    7.499725e+03
  3.628556e+01    8.305963e+03
  3.637710e+01    1.251162e+04
  3.646865e+01    9.392243e+03
  3.656019e+01    7.677442e+03
  3.665173e+01    7.487708e+03
  3.674327e+01    7.458262e+03
  3.683481e+01    7.477728e+03
  3.692635e+01    7.504392e+03
  3.701790e+01    7.554707e+03
  3.710944e+01    7.642789e+03
  3.720098e+01    7.789220e+03
  3.729252e+01    8.069445e+03
  3.738406e+01    8.761592e+03
  3.747560e+01    1.183779e+04
  3.756714e+01    4.178634e+04
  3.765869e+01    6.131265e+04
  3.775023e+01    1.584575e+04
  3.784177e+01    9.395524e+03
  3.793331e+01    8.318485e+03
  3.802485e+01    7.935828e+03
  3.811639e+01    7.771217e+03
  3.820793e+01    7.663904e+03
  3.829948e+01    7.620428e+03
  3.839102e+01    7.586042e+03
  3.848256e+01    7.581830e+03
  3.857410e+01    7.602298e+03
  3.866564e+01    7.680385e+03
  3.875718e+01    8.563634e+03
  3.884872e+01    9.788177e+03
  3.894027e+01    7.925372e+03
  3.903181e+01    7.566584e+03
  3.912335e+01    7.502016e+03
  3.921489e+01    7.458480e+03
  3.930643e+01    7.424540e+03
  3.939797e+01    7.423951e+03
  3.948951e+01    7.381690e+03
  3.958106e+01    7.334629e+03
  3.967260e+01    7.305226e+03
  3.976414e+01    7.270504e+03
  3.985568e+01    7.298309e+03
  3.994722e+01    7.642877e+03
  4.003876e+01    7.685384e+03
  4.013031e+01    7.268135e+03
  4.022185e+01    7.187956e+03
  4.031339e+01    7.160293e+03
  4.040493e+01    7.153734e+03
  4.049647e+01    7.130679e+03
  4.058801e+01    7.119684e+03
  4.067955e+01    7.117184e+03
  4.077110e+01    7.135600e+03
  4.086264e+01    7.194495e+03
  4.095418e+01    7.355933e+03
  4.104572e+01    8.743311e+03
  4.113726e+01    1.397485e+04
  4.122880e+01    9.135676e+03
  4.132034e+01    7.435852e+03
  4.141189e+01    7.235115e+03
  4.150343e+01    7.159177e+03
  4.159497e+01    7.125295e+03
  4.168651e+01    7.095999e+03
  4.177805e+01    7.069778e+03
  4.186959e+01    7.061205e+03
  4.196113e+01    7.073562e+03
  4.205268e+01    7.102280e+03
  4.214422e+01    7.270224e+03
  4.223576e+01    8.401397e+03
  4.232730e+01    7.618237e+03
  4.241884e+01    7.041511e+03
  4.251038e+01    6.974102e+03
  4.260192e+01    6.943993e+03
  4.269347e+01    6.929707e+03
  4.278501e+01    6.921058e+03
  4.287655e+01    6.932936e+03
  4.296809e+01    6.965288e+03
  4.305963e+01    7.009988e+03
  4.315117e+01    7.147320e+03
  4.324272e+01    8.064650e+03
  4.333426e+01    1.263026e+04
  4.342580e+01    9.215729e+03
  4.351734e+01    7.474064e+03
  4.360888e+01    7.567756e+03
  4.370042e+01    8.982153e+03
  4.379196e+01    1.912745e+04
  4.388351e+01    2.148043e+04
  4.397505e+01    1.035163e+04
  4.406659e+01    7.955862e+03
  4.415813e+01    7.697682e+03
  4.424967e+01    8.446147e+03
  4.434121e+01    1.646310e+04
  4.443275e+01    2.979817e+04
  4.452430e+01    1.143741e+04
  4.461584e+01    7.715313e+03
  4.470738e+01    7.124623e+03
  4.479892e+01    6.947797e+03
  4.489046e+01    6.865063e+03
  4.498200e+01    6.841307e+03
  4.507354e+01    6.817940e+03
  4.516509e+01    6.831657e+03
  4.525663e+01    6.949437e+03
  4.534817e+01    7.723841e+03
  4.543971e+01    1.290051e+04
  4.553125e+01    1.005728e+04
  4.562279e+01    7.138933e+03
  4.571433e+01    6.808930e+03
  4.580588e+01    6.729935e+03
  4.589742e+01    6.697832e+03
  4.598896e+01    6.647975e+03
  4.608050e+01    6.614511e+03
  4.617204e+01    6.601067e+03
  4.626358e+01    6.639662e+03
  4.635513e+01    6.786684e+03
  4.644667e+01    8.102537e+03
  4.653821e+01    8.162371e+03
  4.662975e+01    6.913448e+03
  4.672129e+01    6.757438e+03
  4.681283e+01    6.738283e+03
  4.690437e+01    6.724575e+03
  4.699592e+01    6.739623e+03
  4.708746e+01    6.791078e+03
  4.717900e+01    6.833315e+03
  4.727054e+01    6.930887e+03
  4.736208e+01    7.098988e+03
  4.745362e+01    8.098674e+03
  4.754516e+01    8.442939e+03
  4.763671e+01    7.754902e+03
  4.772825e+01    7.512978e+03
  4.781979e+01    7.117829e+03
  4.788844e+01    2.861739e+03