File: Output/ROCK_XRD/WAM39B_integrated/rampe2/wam39b_rampe_2_xrd_000004_integrated.dat
# == pyFAI calibration ==
# Distance Sample to Detector: 0.261615 m
# PONI: 2.023e-01, 2.348e-01 m
# Rotations: -0.026380 0.002005 0.000000 rad
#
# == Fit2d calibration ==
# Distance Sample-beamCenter: 261.707 mm
# Center: x=6119.331, y=5134.776 pix
# Tilt: 1.516 deg  TiltPlanRot: 4.347 deg
#
# Detector Rayonix SX165	 PixelSize= 3.950e-05, 3.950e-05 m
#    Detector has a mask: True
#    Detector has a dark current: False
#    detector has a flat field: False
#
# Wavelength: 1.12713e-10 m
# Mask applied: from detector
# Dark current applied: False
# Flat field applied: False
# Polarization factor: None
# Normalization factor: 1.0
# --> ROCK\\WAM39B_integrated\wam39b_rampe_2_xrd_000004_integrated.dat
#       2th_deg             I
  2.502596e+01    4.817706e+03
  2.511750e+01    1.980748e+04
  2.520905e+01    2.008012e+04
  2.530059e+01    2.017652e+04
  2.539213e+01    1.960300e+04
  2.548367e+01    1.945584e+04
  2.557521e+01    1.931174e+04
  2.566675e+01    1.924310e+04
  2.575829e+01    1.901036e+04
  2.584984e+01    1.880821e+04
  2.594138e+01    1.881872e+04
  2.603292e+01    1.902206e+04
  2.612446e+01    1.956425e+04
  2.621600e+01    2.218608e+04
  2.630754e+01    3.681552e+04
  2.639908e+01    6.289338e+04
  2.649063e+01    3.132366e+04
  2.658217e+01    2.019732e+04
  2.667371e+01    1.825953e+04
  2.676525e+01    1.758226e+04
  2.685679e+01    1.721928e+04
  2.694833e+01    1.693097e+04
  2.703988e+01    1.670350e+04
  2.713142e+01    1.652818e+04
  2.722296e+01    1.631118e+04
  2.731450e+01    1.613376e+04
  2.740604e+01    1.595173e+04
  2.749758e+01    1.580683e+04
  2.758912e+01    1.569633e+04
  2.768067e+01    1.559864e+04
  2.777221e+01    1.560490e+04
  2.786375e+01    1.622146e+04
  2.795529e+01    1.994340e+04
  2.804683e+01    1.772653e+04
  2.813837e+01    1.523515e+04
  2.822991e+01    1.469495e+04
  2.832146e+01    1.443829e+04
  2.841300e+01    1.422040e+04
  2.850454e+01    1.402229e+04
  2.859608e+01    1.385943e+04
  2.868762e+01    1.365081e+04
  2.877916e+01    1.346920e+04
  2.887070e+01    1.328539e+04
  2.896225e+01    1.308844e+04
  2.905379e+01    1.288947e+04
  2.914533e+01    1.270726e+04
  2.923687e+01    1.256054e+04
  2.932841e+01    1.242653e+04
  2.941995e+01    1.256716e+04
  2.951149e+01    1.393139e+04
  2.960304e+01    1.276434e+04
  2.969458e+01    1.185939e+04
  2.978612e+01    1.163778e+04
  2.987766e+01    1.149471e+04
  2.996920e+01    1.142997e+04
  3.006074e+01    1.141934e+04
  3.015228e+01    1.144408e+04
  3.024383e+01    1.154136e+04
  3.033537e+01    1.196236e+04
  3.042691e+01    1.396890e+04
  3.051845e+01    3.292849e+04
  3.060999e+01    6.352224e+04
  3.070153e+01    2.062958e+04
  3.079308e+01    1.322321e+04
  3.088462e+01    1.389525e+04
  3.097616e+01    2.688175e+04
  3.106770e+01    2.144915e+04
  3.115924e+01    1.207653e+04
  3.125078e+01    1.081394e+04
  3.134232e+01    1.045520e+04
  3.143387e+01    1.029178e+04
  3.152541e+01    1.016062e+04
  3.161695e+01    1.004783e+04
  3.170849e+01    9.960803e+03
  3.180003e+01    9.878658e+03
  3.189157e+01    9.808152e+03
  3.198311e+01    9.739840e+03
  3.207466e+01    9.673379e+03
  3.216620e+01    9.628055e+03
  3.225774e+01    9.626250e+03
  3.234928e+01    1.015323e+04
  3.244082e+01    1.112213e+04
  3.253236e+01    9.711613e+03
  3.262390e+01    9.367574e+03
  3.271545e+01    9.261930e+03
  3.280699e+01    9.193205e+03
  3.289853e+01    9.136618e+03
  3.299007e+01    9.072770e+03
  3.308161e+01    9.018671e+03
  3.317315e+01    8.971686e+03
  3.326469e+01    8.942867e+03
  3.335624e+01    8.919170e+03
  3.344778e+01    8.924780e+03
  3.353932e+01    9.023150e+03
  3.363086e+01    9.615371e+03
  3.372240e+01    1.529842e+04
  3.381394e+01    2.123860e+04
  3.390549e+01    1.071777e+04
  3.399703e+01    8.955225e+03
  3.408857e+01    8.624191e+03
  3.418011e+01    8.495483e+03
  3.427165e+01    8.419902e+03
  3.436319e+01    8.347748e+03
  3.445473e+01    8.282447e+03
  3.454628e+01    8.233817e+03
  3.463782e+01    8.174210e+03
  3.472936e+01    8.131274e+03
  3.482090e+01    8.090712e+03
  3.491244e+01    8.035076e+03
  3.500398e+01    7.996729e+03
  3.509552e+01    7.956708e+03
  3.518707e+01    7.932619e+03
  3.527861e+01    7.902704e+03
  3.537015e+01    7.840437e+03
  3.546169e+01    7.800116e+03
  3.555323e+01    7.754890e+03
  3.564477e+01    7.722854e+03
  3.573631e+01    7.709836e+03
  3.582786e+01    7.679848e+03
  3.591940e+01    7.690578e+03
  3.601094e+01    7.721431e+03
  3.610248e+01    7.763214e+03
  3.619402e+01    7.923684e+03
  3.628556e+01    9.149272e+03
  3.637710e+01    1.329553e+04
  3.646865e+01    9.222594e+03
  3.656019e+01    7.990683e+03
  3.665173e+01    7.849533e+03
  3.674327e+01    7.837603e+03
  3.683481e+01    7.855894e+03
  3.692635e+01    7.886783e+03
  3.701790e+01    7.950375e+03
  3.710944e+01    8.049960e+03
  3.720098e+01    8.222448e+03
  3.729252e+01    8.540723e+03
  3.738406e+01    9.410747e+03
  3.747560e+01    1.399187e+04
  3.756714e+01    5.518372e+04
  3.765869e+01    5.357376e+04
  3.775023e+01    1.409434e+04
  3.784177e+01    9.533944e+03
  3.793331e+01    8.648468e+03
  3.802485e+01    8.288494e+03
  3.811639e+01    8.141970e+03
  3.820793e+01    8.031213e+03
  3.829948e+01    7.988105e+03
  3.839102e+01    7.945941e+03
  3.848256e+01    7.933083e+03
  3.857410e+01    7.961893e+03
  3.866564e+01    8.080000e+03
  3.875718e+01    9.377872e+03
  3.884872e+01    9.886291e+03
  3.894027e+01    8.161210e+03
  3.903181e+01    7.909986e+03
  3.912335e+01    7.864815e+03
  3.921489e+01    7.818595e+03
  3.930643e+01    7.791308e+03
  3.939797e+01    7.790790e+03
  3.948951e+01    7.746204e+03
  3.958106e+01    7.703188e+03
  3.967260e+01    7.673940e+03
  3.976414e+01    7.639310e+03
  3.985568e+01    7.691842e+03
  3.994722e+01    8.148702e+03
  4.003876e+01    7.958453e+03
  4.013031e+01    7.620785e+03
  4.022185e+01    7.564220e+03
  4.031339e+01    7.537190e+03
  4.040493e+01    7.523289e+03
  4.049647e+01    7.507401e+03
  4.058801e+01    7.480782e+03
  4.067955e+01    7.476833e+03
  4.077110e+01    7.497278e+03
  4.086264e+01    7.546330e+03
  4.095418e+01    7.777511e+03
  4.104572e+01    1.001505e+04
  4.113726e+01    1.425609e+04
  4.122880e+01    8.757992e+03
  4.132034e+01    7.630982e+03
  4.141189e+01    7.455446e+03
  4.150343e+01    7.400441e+03
  4.159497e+01    7.387250e+03
  4.168651e+01    7.384100e+03
  4.177805e+01    7.356776e+03
  4.186959e+01    7.345243e+03
  4.196113e+01    7.340041e+03
  4.205268e+01    7.372129e+03
  4.214422e+01    7.680123e+03
  4.223576e+01    8.833558e+03
  4.232730e+01    7.737771e+03
  4.241884e+01    7.365559e+03
  4.251038e+01    7.313147e+03
  4.260192e+01    7.296906e+03
  4.269347e+01    7.280879e+03
  4.278501e+01    7.288018e+03
  4.287655e+01    7.288876e+03
  4.296809e+01    7.323396e+03
  4.305963e+01    7.402982e+03
  4.315117e+01    7.571327e+03
  4.324272e+01    9.101849e+03
  4.333426e+01    1.328851e+04
  4.342580e+01    8.887360e+03
  4.351734e+01    7.819183e+03
  4.360888e+01    8.227423e+03
  4.370042e+01    1.409838e+04
  4.379196e+01    3.102648e+04
  4.388351e+01    1.255360e+04
  4.397505e+01    8.209091e+03
  4.406659e+01    7.742049e+03
  4.415813e+01    7.860889e+03
  4.424967e+01    9.130231e+03
  4.434121e+01    2.185638e+04
  4.443275e+01    2.744616e+04
  4.452430e+01    1.024572e+04
  4.461584e+01    7.886270e+03
  4.470738e+01    7.433863e+03
  4.479892e+01    7.286434e+03
  4.489046e+01    7.204392e+03
  4.498200e+01    7.182454e+03
  4.507354e+01    7.173840e+03
  4.516509e+01    7.205264e+03
  4.525663e+01    7.358510e+03
  4.534817e+01    8.680401e+03
  4.543971e+01    1.407421e+04
  4.553125e+01    9.295719e+03
  4.562279e+01    7.334250e+03
  4.571433e+01    7.099677e+03
  4.580588e+01    7.035120e+03
  4.589742e+01    6.973580e+03
  4.598896e+01    6.931294e+03
  4.608050e+01    6.909967e+03
  4.617204e+01    6.908796e+03
  4.626358e+01    6.945073e+03
  4.635513e+01    7.190342e+03
  4.644667e+01    8.854174e+03
  4.653821e+01    8.022025e+03
  4.662975e+01    7.069101e+03
  4.672129e+01    6.985039e+03
  4.681283e+01    6.975953e+03
  4.690437e+01    6.986979e+03
  4.699592e+01    7.030356e+03
  4.708746e+01    7.092954e+03
  4.717900e+01    7.150462e+03
  4.727054e+01    7.257807e+03
  4.736208e+01    7.514345e+03
  4.745362e+01    8.774088e+03
  4.754516e+01    8.506135e+03
  4.763671e+01    8.078224e+03
  4.772825e+01    7.857763e+03
  4.781979e+01    7.456825e+03
  4.788844e+01    2.989580e+03