File: Output/ROCK_XRD/WAM39B_integrated/rampe2/wam39b_rampe_2_xrd_000010_integrated.dat
# == pyFAI calibration ==
# Distance Sample to Detector: 0.261615 m
# PONI: 2.023e-01, 2.348e-01 m
# Rotations: -0.026380 0.002005 0.000000 rad
#
# == Fit2d calibration ==
# Distance Sample-beamCenter: 261.707 mm
# Center: x=6119.331, y=5134.776 pix
# Tilt: 1.516 deg  TiltPlanRot: 4.347 deg
#
# Detector Rayonix SX165	 PixelSize= 3.950e-05, 3.950e-05 m
#    Detector has a mask: True
#    Detector has a dark current: False
#    detector has a flat field: False
#
# Wavelength: 1.12713e-10 m
# Mask applied: from detector
# Dark current applied: False
# Flat field applied: False
# Polarization factor: None
# Normalization factor: 1.0
# --> ROCK\\WAM39B_integrated\wam39b_rampe_2_xrd_000010_integrated.dat
#       2th_deg             I
  2.502596e+01    4.241699e+03
  2.511750e+01    1.745978e+04
  2.520905e+01    1.768099e+04
  2.530059e+01    1.780245e+04
  2.539213e+01    1.732057e+04
  2.548367e+01    1.729570e+04
  2.557521e+01    1.739090e+04
  2.566675e+01    1.754774e+04
  2.575829e+01    1.751917e+04
  2.584984e+01    1.737149e+04
  2.594138e+01    1.724946e+04
  2.603292e+01    1.717502e+04
  2.612446e+01    1.743096e+04
  2.621600e+01    1.942322e+04
  2.630754e+01    3.011733e+04
  2.639908e+01    4.861223e+04
  2.649063e+01    3.167512e+04
  2.658217e+01    1.878108e+04
  2.667371e+01    1.635831e+04
  2.676525e+01    1.561171e+04
  2.685679e+01    1.523467e+04
  2.694833e+01    1.497234e+04
  2.703988e+01    1.475400e+04
  2.713142e+01    1.460003e+04
  2.722296e+01    1.441017e+04
  2.731450e+01    1.426294e+04
  2.740604e+01    1.409007e+04
  2.749758e+01    1.402625e+04
  2.758912e+01    1.396279e+04
  2.768067e+01    1.392635e+04
  2.777221e+01    1.399086e+04
  2.786375e+01    1.465012e+04
  2.795529e+01    1.798458e+04
  2.804683e+01    1.618101e+04
  2.813837e+01    1.387370e+04
  2.822991e+01    1.330629e+04
  2.832146e+01    1.299901e+04
  2.841300e+01    1.273784e+04
  2.850454e+01    1.253548e+04
  2.859608e+01    1.235402e+04
  2.868762e+01    1.219755e+04
  2.877916e+01    1.208336e+04
  2.887070e+01    1.199204e+04
  2.896225e+01    1.188817e+04
  2.905379e+01    1.168479e+04
  2.914533e+01    1.146223e+04
  2.923687e+01    1.127540e+04
  2.932841e+01    1.111416e+04
  2.941995e+01    1.118957e+04
  2.951149e+01    1.237770e+04
  2.960304e+01    1.136132e+04
  2.969458e+01    1.053047e+04
  2.978612e+01    1.031518e+04
  2.987766e+01    1.018426e+04
  2.996920e+01    1.013962e+04
  3.006074e+01    1.013992e+04
  3.015228e+01    1.014807e+04
  3.024383e+01    1.022583e+04
  3.033537e+01    1.057846e+04
  3.042691e+01    1.201029e+04
  3.051845e+01    2.118994e+04
  3.060999e+01    4.855830e+04
  3.070153e+01    2.527480e+04
  3.079308e+01    1.332934e+04
  3.088462e+01    1.273579e+04
  3.097616e+01    2.384113e+04
  3.106770e+01    1.939565e+04
  3.115924e+01    1.077664e+04
  3.125078e+01    9.603155e+03
  3.134232e+01    9.280430e+03
  3.143387e+01    9.130919e+03
  3.152541e+01    9.013503e+03
  3.161695e+01    8.914067e+03
  3.170849e+01    8.832814e+03
  3.180003e+01    8.761722e+03
  3.189157e+01    8.708310e+03
  3.198311e+01    8.646608e+03
  3.207466e+01    8.598306e+03
  3.216620e+01    8.557190e+03
  3.225774e+01    8.564448e+03
  3.234928e+01    9.035095e+03
  3.244082e+01    9.970917e+03
  3.253236e+01    8.734397e+03
  3.262390e+01    8.470350e+03
  3.271545e+01    8.392673e+03
  3.280699e+01    8.288745e+03
  3.289853e+01    8.186124e+03
  3.299007e+01    8.080691e+03
  3.308161e+01    8.025674e+03
  3.317315e+01    7.983000e+03
  3.326469e+01    7.947349e+03
  3.335624e+01    7.920901e+03
  3.344778e+01    7.928373e+03
  3.353932e+01    8.018352e+03
  3.363086e+01    8.538637e+03
  3.372240e+01    1.349154e+04
  3.381394e+01    1.910029e+04
  3.390549e+01    9.626183e+03
  3.399703e+01    7.975321e+03
  3.408857e+01    7.675740e+03
  3.418011e+01    7.569068e+03
  3.427165e+01    7.524059e+03
  3.436319e+01    7.474827e+03
  3.445473e+01    7.449332e+03
  3.454628e+01    7.404220e+03
  3.463782e+01    7.369667e+03
  3.472936e+01    7.339774e+03
  3.482090e+01    7.282432e+03
  3.491244e+01    7.220188e+03
  3.500398e+01    7.151638e+03
  3.509552e+01    7.099028e+03
  3.518707e+01    7.058235e+03
  3.527861e+01    7.031951e+03
  3.537015e+01    6.972551e+03
  3.546169e+01    6.920458e+03
  3.555323e+01    6.887537e+03
  3.564477e+01    6.861646e+03
  3.573631e+01    6.853178e+03
  3.582786e+01    6.831906e+03
  3.591940e+01    6.837345e+03
  3.601094e+01    6.853750e+03
  3.610248e+01    6.899225e+03
  3.619402e+01    7.033592e+03
  3.628556e+01    8.100492e+03
  3.637710e+01    1.185226e+04
  3.646865e+01    8.277453e+03
  3.656019e+01    7.110718e+03
  3.665173e+01    6.975390e+03
  3.674327e+01    6.964024e+03
  3.683481e+01    6.973048e+03
  3.692635e+01    7.005842e+03
  3.701790e+01    7.060981e+03
  3.710944e+01    7.149453e+03
  3.720098e+01    7.295791e+03
  3.729252e+01    7.588562e+03
  3.738406e+01    8.356971e+03
  3.747560e+01    1.234421e+04
  3.756714e+01    4.839525e+04
  3.765869e+01    4.925051e+04
  3.775023e+01    1.283395e+04
  3.784177e+01    8.519559e+03
  3.793331e+01    7.688944e+03
  3.802485e+01    7.367304e+03
  3.811639e+01    7.238062e+03
  3.820793e+01    7.143066e+03
  3.829948e+01    7.091308e+03
  3.839102e+01    7.065942e+03
  3.848256e+01    7.056092e+03
  3.857410e+01    7.085382e+03
  3.866564e+01    7.195926e+03
  3.875718e+01    8.324104e+03
  3.884872e+01    8.865275e+03
  3.894027e+01    7.271807e+03
  3.903181e+01    7.036038e+03
  3.912335e+01    6.983642e+03
  3.921489e+01    6.949970e+03
  3.930643e+01    6.923334e+03
  3.939797e+01    6.908728e+03
  3.948951e+01    6.875112e+03
  3.958106e+01    6.836342e+03
  3.967260e+01    6.815203e+03
  3.976414e+01    6.784648e+03
  3.985568e+01    6.817117e+03
  3.994722e+01    7.221097e+03
  4.003876e+01    7.074632e+03
  4.013031e+01    6.758485e+03
  4.022185e+01    6.710505e+03
  4.031339e+01    6.691107e+03
  4.040493e+01    6.668045e+03
  4.049647e+01    6.659802e+03
  4.058801e+01    6.641776e+03
  4.067955e+01    6.651586e+03
  4.077110e+01    6.675728e+03
  4.086264e+01    6.711834e+03
  4.095418e+01    6.926283e+03
  4.104572e+01    8.882921e+03
  4.113726e+01    1.285457e+04
  4.122880e+01    7.934496e+03
  4.132034e+01    6.855299e+03
  4.141189e+01    6.701621e+03
  4.150343e+01    6.648960e+03
  4.159497e+01    6.612440e+03
  4.168651e+01    6.609543e+03
  4.177805e+01    6.574838e+03
  4.186959e+01    6.570676e+03
  4.196113e+01    6.579765e+03
  4.205268e+01    6.608873e+03
  4.214422e+01    6.869049e+03
  4.223576e+01    7.899127e+03
  4.232730e+01    6.926436e+03
  4.241884e+01    6.555829e+03
  4.251038e+01    6.502566e+03
  4.260192e+01    6.471986e+03
  4.269347e+01    6.472887e+03
  4.278501e+01    6.465381e+03
  4.287655e+01    6.475835e+03
  4.296809e+01    6.501937e+03
  4.305963e+01    6.566954e+03
  4.315117e+01    6.728792e+03
  4.324272e+01    8.038143e+03
  4.333426e+01    1.190527e+04
  4.342580e+01    7.987671e+03
  4.351734e+01    6.958020e+03
  4.360888e+01    7.185672e+03
  4.370042e+01    9.501250e+03
  4.379196e+01    2.161886e+04
  4.388351e+01    1.669536e+04
  4.397505e+01    8.647663e+03
  4.406659e+01    7.273541e+03
  4.415813e+01    7.213066e+03
  4.424967e+01    8.280410e+03
  4.434121e+01    1.923223e+04
  4.443275e+01    2.520449e+04
  4.452430e+01    9.358854e+03
  4.461584e+01    7.056142e+03
  4.470738e+01    6.623071e+03
  4.479892e+01    6.474750e+03
  4.489046e+01    6.398230e+03
  4.498200e+01    6.376856e+03
  4.507354e+01    6.362166e+03
  4.516509e+01    6.388596e+03
  4.525663e+01    6.518647e+03
  4.534817e+01    7.677750e+03
  4.543971e+01    1.257515e+04
  4.553125e+01    8.435110e+03
  4.562279e+01    6.541420e+03
  4.571433e+01    6.315036e+03
  4.580588e+01    6.240431e+03
  4.589742e+01    6.212135e+03
  4.598896e+01    6.174948e+03
  4.608050e+01    6.148467e+03
  4.617204e+01    6.161390e+03
  4.626358e+01    6.186221e+03
  4.635513e+01    6.408712e+03
  4.644667e+01    7.892970e+03
  4.653821e+01    7.241048e+03
  4.662975e+01    6.361508e+03
  4.672129e+01    6.245460e+03
  4.681283e+01    6.246458e+03
  4.690437e+01    6.250005e+03
  4.699592e+01    6.268025e+03
  4.708746e+01    6.315800e+03
  4.717900e+01    6.366812e+03
  4.727054e+01    6.462300e+03
  4.736208e+01    6.684948e+03
  4.745362e+01    7.794222e+03
  4.754516e+01    7.617839e+03
  4.763671e+01    7.184069e+03
  4.772825e+01    6.986122e+03
  4.781979e+01    6.642339e+03
  4.788844e+01    2.677194e+03