File: Output/ROCK_XRD/WAM39B_integrated/rampe2/wam39b_rampe_2_xrd_000013_integrated.dat
# == pyFAI calibration ==
# Distance Sample to Detector: 0.261615 m
# PONI: 2.023e-01, 2.348e-01 m
# Rotations: -0.026380 0.002005 0.000000 rad
#
# == Fit2d calibration ==
# Distance Sample-beamCenter: 261.707 mm
# Center: x=6119.331, y=5134.776 pix
# Tilt: 1.516 deg  TiltPlanRot: 4.347 deg
#
# Detector Rayonix SX165	 PixelSize= 3.950e-05, 3.950e-05 m
#    Detector has a mask: True
#    Detector has a dark current: False
#    detector has a flat field: False
#
# Wavelength: 1.12713e-10 m
# Mask applied: from detector
# Dark current applied: False
# Flat field applied: False
# Polarization factor: None
# Normalization factor: 1.0
# --> ROCK\\WAM39B_integrated\wam39b_rampe_2_xrd_000013_integrated.dat
#       2th_deg             I
  2.502596e+01    4.520905e+03
  2.511750e+01    1.860046e+04
  2.520905e+01    1.886481e+04
  2.530059e+01    1.897123e+04
  2.539213e+01    1.847094e+04
  2.548367e+01    1.844682e+04
  2.557521e+01    1.861242e+04
  2.566675e+01    1.887089e+04
  2.575829e+01    1.887506e+04
  2.584984e+01    1.866183e+04
  2.594138e+01    1.844075e+04
  2.603292e+01    1.827595e+04
  2.612446e+01    1.847819e+04
  2.621600e+01    2.022041e+04
  2.630754e+01    2.983988e+04
  2.639908e+01    4.869332e+04
  2.649063e+01    3.691721e+04
  2.658217e+01    2.066852e+04
  2.667371e+01    1.756496e+04
  2.676525e+01    1.666996e+04
  2.685679e+01    1.624887e+04
  2.694833e+01    1.595762e+04
  2.703988e+01    1.572421e+04
  2.713142e+01    1.554783e+04
  2.722296e+01    1.534232e+04
  2.731450e+01    1.519822e+04
  2.740604e+01    1.502036e+04
  2.749758e+01    1.493402e+04
  2.758912e+01    1.487618e+04
  2.768067e+01    1.487558e+04
  2.777221e+01    1.496080e+04
  2.786375e+01    1.558645e+04
  2.795529e+01    1.887767e+04
  2.804683e+01    1.789630e+04
  2.813837e+01    1.499050e+04
  2.822991e+01    1.426043e+04
  2.832146e+01    1.389232e+04
  2.841300e+01    1.357730e+04
  2.850454e+01    1.333593e+04
  2.859608e+01    1.314668e+04
  2.868762e+01    1.295896e+04
  2.877916e+01    1.283405e+04
  2.887070e+01    1.275853e+04
  2.896225e+01    1.263830e+04
  2.905379e+01    1.244560e+04
  2.914533e+01    1.218490e+04
  2.923687e+01    1.197467e+04
  2.932841e+01    1.179708e+04
  2.941995e+01    1.182867e+04
  2.951149e+01    1.299533e+04
  2.960304e+01    1.226225e+04
  2.969458e+01    1.122148e+04
  2.978612e+01    1.096791e+04
  2.987766e+01    1.084455e+04
  2.996920e+01    1.077824e+04
  3.006074e+01    1.076028e+04
  3.015228e+01    1.078438e+04
  3.024383e+01    1.084070e+04
  3.033537e+01    1.115144e+04
  3.042691e+01    1.234923e+04
  3.051845e+01    1.940501e+04
  3.060999e+01    4.878083e+04
  3.070153e+01    3.104731e+04
  3.079308e+01    1.489897e+04
  3.088462e+01    1.322080e+04
  3.097616e+01    2.331342e+04
  3.106770e+01    2.267366e+04
  3.115924e+01    1.181354e+04
  3.125078e+01    1.027558e+04
  3.134232e+01    9.891368e+03
  3.143387e+01    9.719761e+03
  3.152541e+01    9.590240e+03
  3.161695e+01    9.486901e+03
  3.170849e+01    9.402590e+03
  3.180003e+01    9.324571e+03
  3.189157e+01    9.266881e+03
  3.198311e+01    9.220749e+03
  3.207466e+01    9.160518e+03
  3.216620e+01    9.107134e+03
  3.225774e+01    9.102644e+03
  3.234928e+01    9.456655e+03
  3.244082e+01    1.064145e+04
  3.253236e+01    9.384539e+03
  3.262390e+01    9.007489e+03
  3.271545e+01    8.943085e+03
  3.280699e+01    8.827168e+03
  3.289853e+01    8.714302e+03
  3.299007e+01    8.590759e+03
  3.308161e+01    8.534252e+03
  3.317315e+01    8.479193e+03
  3.326469e+01    8.449413e+03
  3.335624e+01    8.425593e+03
  3.344778e+01    8.430679e+03
  3.353932e+01    8.500613e+03
  3.363086e+01    8.914076e+03
  3.372240e+01    1.291045e+04
  3.381394e+01    2.121669e+04
  3.390549e+01    1.087192e+04
  3.399703e+01    8.543147e+03
  3.408857e+01    8.177235e+03
  3.418011e+01    8.060021e+03
  3.427165e+01    7.989370e+03
  3.436319e+01    7.952481e+03
  3.445473e+01    7.910835e+03
  3.454628e+01    7.886597e+03
  3.463782e+01    7.864558e+03
  3.472936e+01    7.832727e+03
  3.482090e+01    7.783687e+03
  3.491244e+01    7.726895e+03
  3.500398e+01    7.642334e+03
  3.509552e+01    7.579465e+03
  3.518707e+01    7.513077e+03
  3.527861e+01    7.483200e+03
  3.537015e+01    7.415679e+03
  3.546169e+01    7.367784e+03
  3.555323e+01    7.336648e+03
  3.564477e+01    7.298124e+03
  3.573631e+01    7.279891e+03
  3.582786e+01    7.266469e+03
  3.591940e+01    7.264357e+03
  3.601094e+01    7.289014e+03
  3.610248e+01    7.323751e+03
  3.619402e+01    7.447481e+03
  3.628556e+01    8.251199e+03
  3.637710e+01    1.241009e+04
  3.646865e+01    9.293927e+03
  3.656019e+01    7.606816e+03
  3.665173e+01    7.424902e+03
  3.674327e+01    7.404533e+03
  3.683481e+01    7.409704e+03
  3.692635e+01    7.443225e+03
  3.701790e+01    7.491243e+03
  3.710944e+01    7.585467e+03
  3.720098e+01    7.728281e+03
  3.729252e+01    7.992862e+03
  3.738406e+01    8.687795e+03
  3.747560e+01    1.179341e+04
  3.756714e+01    4.185936e+04
  3.765869e+01    6.041643e+04
  3.775023e+01    1.561285e+04
  3.784177e+01    9.307238e+03
  3.793331e+01    8.256795e+03
  3.802485e+01    7.859439e+03
  3.811639e+01    7.707339e+03
  3.820793e+01    7.596879e+03
  3.829948e+01    7.550706e+03
  3.839102e+01    7.524370e+03
  3.848256e+01    7.512785e+03
  3.857410e+01    7.532702e+03
  3.866564e+01    7.619719e+03
  3.875718e+01    8.500355e+03
  3.884872e+01    9.682292e+03
  3.894027e+01    7.846529e+03
  3.903181e+01    7.498232e+03
  3.912335e+01    7.427942e+03
  3.921489e+01    7.389271e+03
  3.930643e+01    7.363774e+03
  3.939797e+01    7.345606e+03
  3.948951e+01    7.318702e+03
  3.958106e+01    7.279251e+03
  3.967260e+01    7.231859e+03
  3.976414e+01    7.206376e+03
  3.985568e+01    7.234972e+03
  3.994722e+01    7.580763e+03
  4.003876e+01    7.619802e+03
  4.013031e+01    7.208190e+03
  4.022185e+01    7.126179e+03
  4.031339e+01    7.106673e+03
  4.040493e+01    7.094136e+03
  4.049647e+01    7.077518e+03
  4.058801e+01    7.067603e+03
  4.067955e+01    7.062953e+03
  4.077110e+01    7.085055e+03
  4.086264e+01    7.126772e+03
  4.095418e+01    7.302523e+03
  4.104572e+01    8.705519e+03
  4.113726e+01    1.384652e+04
  4.122880e+01    9.019173e+03
  4.132034e+01    7.371871e+03
  4.141189e+01    7.162043e+03
  4.150343e+01    7.089566e+03
  4.159497e+01    7.056902e+03
  4.168651e+01    7.035875e+03
  4.177805e+01    7.001200e+03
  4.186959e+01    6.995125e+03
  4.196113e+01    7.006288e+03
  4.205268e+01    7.032410e+03
  4.214422e+01    7.199773e+03
  4.223576e+01    8.331795e+03
  4.232730e+01    7.541682e+03
  4.241884e+01    6.984117e+03
  4.251038e+01    6.919678e+03
  4.260192e+01    6.882491e+03
  4.269347e+01    6.881985e+03
  4.278501e+01    6.863896e+03
  4.287655e+01    6.865809e+03
  4.296809e+01    6.896796e+03
  4.305963e+01    6.955331e+03
  4.315117e+01    7.085083e+03
  4.324272e+01    8.019810e+03
  4.333426e+01    1.254125e+04
  4.342580e+01    9.097248e+03
  4.351734e+01    7.408337e+03
  4.360888e+01    7.524197e+03
  4.370042e+01    9.017690e+03
  4.379196e+01    1.962822e+04
  4.388351e+01    2.085354e+04
  4.397505e+01    1.008579e+04
  4.406659e+01    7.855750e+03
  4.415813e+01    7.628686e+03
  4.424967e+01    8.394459e+03
  4.434121e+01    1.651298e+04
  4.443275e+01    2.940605e+04
  4.452430e+01    1.126428e+04
  4.461584e+01    7.653715e+03
  4.470738e+01    7.069329e+03
  4.479892e+01    6.893246e+03
  4.489046e+01    6.802928e+03
  4.498200e+01    6.771932e+03
  4.507354e+01    6.752252e+03
  4.516509e+01    6.781670e+03
  4.525663e+01    6.892097e+03
  4.534817e+01    7.683676e+03
  4.543971e+01    1.284170e+04
  4.553125e+01    9.915809e+03
  4.562279e+01    7.064482e+03
  4.571433e+01    6.739826e+03
  4.580588e+01    6.659425e+03
  4.589742e+01    6.623805e+03
  4.598896e+01    6.584684e+03
  4.608050e+01    6.548395e+03
  4.617204e+01    6.539391e+03
  4.626358e+01    6.587581e+03
  4.635513e+01    6.745577e+03
  4.644667e+01    8.041698e+03
  4.653821e+01    8.076540e+03
  4.662975e+01    6.842213e+03
  4.672129e+01    6.689550e+03
  4.681283e+01    6.658464e+03
  4.690437e+01    6.650055e+03
  4.699592e+01    6.677252e+03
  4.708746e+01    6.725363e+03
  4.717900e+01    6.775151e+03
  4.727054e+01    6.862126e+03
  4.736208e+01    7.059814e+03
  4.745362e+01    8.045337e+03
  4.754516e+01    8.342410e+03
  4.763671e+01    7.692934e+03
  4.772825e+01    7.420006e+03
  4.781979e+01    7.071050e+03
  4.788844e+01    2.839055e+03