File: Output/ROCK_XRD/WAM39B_integrated/rampe2/wam39b_rampe_2_xrd_000006_integrated.dat
# == pyFAI calibration ==
# Distance Sample to Detector: 0.261615 m
# PONI: 2.023e-01, 2.348e-01 m
# Rotations: -0.026380 0.002005 0.000000 rad
#
# == Fit2d calibration ==
# Distance Sample-beamCenter: 261.707 mm
# Center: x=6119.331, y=5134.776 pix
# Tilt: 1.516 deg  TiltPlanRot: 4.347 deg
#
# Detector Rayonix SX165	 PixelSize= 3.950e-05, 3.950e-05 m
#    Detector has a mask: True
#    Detector has a dark current: False
#    detector has a flat field: False
#
# Wavelength: 1.12713e-10 m
# Mask applied: from detector
# Dark current applied: False
# Flat field applied: False
# Polarization factor: None
# Normalization factor: 1.0
# --> ROCK\\WAM39B_integrated\wam39b_rampe_2_xrd_000006_integrated.dat
#       2th_deg             I
  2.502596e+01    4.268942e+03
  2.511750e+01    1.750556e+04
  2.520905e+01    1.776096e+04
  2.530059e+01    1.781588e+04
  2.539213e+01    1.732688e+04
  2.548367e+01    1.721397e+04
  2.557521e+01    1.714949e+04
  2.566675e+01    1.712842e+04
  2.575829e+01    1.698882e+04
  2.584984e+01    1.686556e+04
  2.594138e+01    1.691865e+04
  2.603292e+01    1.701814e+04
  2.612446e+01    1.738455e+04
  2.621600e+01    1.936016e+04
  2.630754e+01    3.017094e+04
  2.639908e+01    5.227305e+04
  2.649063e+01    3.119059e+04
  2.658217e+01    1.863393e+04
  2.667371e+01    1.636761e+04
  2.676525e+01    1.564471e+04
  2.685679e+01    1.527596e+04
  2.694833e+01    1.500897e+04
  2.703988e+01    1.480071e+04
  2.713142e+01    1.464310e+04
  2.722296e+01    1.444560e+04
  2.731450e+01    1.428581e+04
  2.740604e+01    1.412995e+04
  2.749758e+01    1.402615e+04
  2.758912e+01    1.392530e+04
  2.768067e+01    1.385380e+04
  2.777221e+01    1.382478e+04
  2.786375e+01    1.434635e+04
  2.795529e+01    1.754153e+04
  2.804683e+01    1.596866e+04
  2.813837e+01    1.356230e+04
  2.822991e+01    1.306810e+04
  2.832146e+01    1.284115e+04
  2.841300e+01    1.263844e+04
  2.850454e+01    1.247472e+04
  2.859608e+01    1.233093e+04
  2.868762e+01    1.218061e+04
  2.877916e+01    1.203938e+04
  2.887070e+01    1.191481e+04
  2.896225e+01    1.177616e+04
  2.905379e+01    1.160797e+04
  2.914533e+01    1.142259e+04
  2.923687e+01    1.126160e+04
  2.932841e+01    1.112085e+04
  2.941995e+01    1.120785e+04
  2.951149e+01    1.237800e+04
  2.960304e+01    1.144702e+04
  2.969458e+01    1.056690e+04
  2.978612e+01    1.034829e+04
  2.987766e+01    1.022098e+04
  2.996920e+01    1.016976e+04
  3.006074e+01    1.016605e+04
  3.015228e+01    1.017596e+04
  3.024383e+01    1.024962e+04
  3.033537e+01    1.059442e+04
  3.042691e+01    1.200453e+04
  3.051845e+01    2.244222e+04
  3.060999e+01    5.435701e+04
  3.070153e+01    2.344586e+04
  3.079308e+01    1.285353e+04
  3.088462e+01    1.248882e+04
  3.097616e+01    2.322558e+04
  3.106770e+01    2.004148e+04
  3.115924e+01    1.090342e+04
  3.125078e+01    9.648650e+03
  3.134232e+01    9.305618e+03
  3.143387e+01    9.152109e+03
  3.152541e+01    9.032749e+03
  3.161695e+01    8.933923e+03
  3.170849e+01    8.855678e+03
  3.180003e+01    8.775521e+03
  3.189157e+01    8.730415e+03
  3.198311e+01    8.667809e+03
  3.207466e+01    8.610515e+03
  3.216620e+01    8.569542e+03
  3.225774e+01    8.587423e+03
  3.234928e+01    8.998456e+03
  3.244082e+01    9.998164e+03
  3.253236e+01    8.749407e+03
  3.262390e+01    8.434675e+03
  3.271545e+01    8.334967e+03
  3.280699e+01    8.257138e+03
  3.289853e+01    8.163124e+03
  3.299007e+01    8.087755e+03
  3.308161e+01    8.024302e+03
  3.317315e+01    7.986617e+03
  3.326469e+01    7.954488e+03
  3.335624e+01    7.930714e+03
  3.344778e+01    7.943354e+03
  3.353932e+01    8.022979e+03
  3.363086e+01    8.487671e+03
  3.372240e+01    1.304579e+04
  3.381394e+01    1.946349e+04
  3.390549e+01    9.819129e+03
  3.399703e+01    8.000977e+03
  3.408857e+01    7.691978e+03
  3.418011e+01    7.576679e+03
  3.427165e+01    7.502243e+03
  3.436319e+01    7.444348e+03
  3.445473e+01    7.381687e+03
  3.454628e+01    7.342253e+03
  3.463782e+01    7.289070e+03
  3.472936e+01    7.250461e+03
  3.482090e+01    7.201399e+03
  3.491244e+01    7.158349e+03
  3.500398e+01    7.121292e+03
  3.509552e+01    7.087150e+03
  3.518707e+01    7.056833e+03
  3.527861e+01    7.033394e+03
  3.537015e+01    6.970335e+03
  3.546169e+01    6.929771e+03
  3.555323e+01    6.903613e+03
  3.564477e+01    6.868832e+03
  3.573631e+01    6.851386e+03
  3.582786e+01    6.841383e+03
  3.591940e+01    6.845112e+03
  3.601094e+01    6.863534e+03
  3.610248e+01    6.905595e+03
  3.619402e+01    7.029418e+03
  3.628556e+01    7.990142e+03
  3.637710e+01    1.184341e+04
  3.646865e+01    8.420821e+03
  3.656019e+01    7.134310e+03
  3.665173e+01    6.978649e+03
  3.674327e+01    6.967156e+03
  3.683481e+01    6.978356e+03
  3.692635e+01    7.015574e+03
  3.701790e+01    7.061978e+03
  3.710944e+01    7.152353e+03
  3.720098e+01    7.296949e+03
  3.729252e+01    7.575692e+03
  3.738406e+01    8.303482e+03
  3.747560e+01    1.189586e+04
  3.756714e+01    4.545854e+04
  3.765869e+01    5.186904e+04
  3.775023e+01    1.336035e+04
  3.784177e+01    8.597835e+03
  3.793331e+01    7.717361e+03
  3.802485e+01    7.383556e+03
  3.811639e+01    7.238327e+03
  3.820793e+01    7.140021e+03
  3.829948e+01    7.103635e+03
  3.839102e+01    7.066066e+03
  3.848256e+01    7.054545e+03
  3.857410e+01    7.080421e+03
  3.866564e+01    7.164379e+03
  3.875718e+01    8.195437e+03
  3.884872e+01    8.947466e+03
  3.894027e+01    7.289646e+03
  3.903181e+01    7.037990e+03
  3.912335e+01    6.979135e+03
  3.921489e+01    6.950353e+03
  3.930643e+01    6.920417e+03
  3.939797e+01    6.913652e+03
  3.948951e+01    6.874491e+03
  3.958106e+01    6.846864e+03
  3.967260e+01    6.811378e+03
  3.976414e+01    6.782276e+03
  3.985568e+01    6.813248e+03
  3.994722e+01    7.206520e+03
  4.003876e+01    7.119287e+03
  4.013031e+01    6.770837e+03
  4.022185e+01    6.716406e+03
  4.031339e+01    6.683639e+03
  4.040493e+01    6.677459e+03
  4.049647e+01    6.663719e+03
  4.058801e+01    6.651037e+03
  4.067955e+01    6.650432e+03
  4.077110e+01    6.665087e+03
  4.086264e+01    6.708409e+03
  4.095418e+01    6.893673e+03
  4.104572e+01    8.621217e+03
  4.113726e+01    1.293884e+04
  4.122880e+01    8.055254e+03
  4.132034e+01    6.833845e+03
  4.141189e+01    6.659477e+03
  4.150343e+01    6.613564e+03
  4.159497e+01    6.583674e+03
  4.168651e+01    6.576629e+03
  4.177805e+01    6.556653e+03
  4.186959e+01    6.539449e+03
  4.196113e+01    6.544024e+03
  4.205268e+01    6.566968e+03
  4.214422e+01    6.803396e+03
  4.223576e+01    7.879010e+03
  4.232730e+01    6.967011e+03
  4.241884e+01    6.557122e+03
  4.251038e+01    6.510094e+03
  4.260192e+01    6.484507e+03
  4.269347e+01    6.471905e+03
  4.278501e+01    6.470105e+03
  4.287655e+01    6.479624e+03
  4.296809e+01    6.497889e+03
  4.305963e+01    6.566776e+03
  4.315117e+01    6.715399e+03
  4.324272e+01    7.866513e+03
  4.333426e+01    1.192147e+04
  4.342580e+01    8.157085e+03
  4.351734e+01    6.957289e+03
  4.360888e+01    7.157427e+03
  4.370042e+01    9.703201e+03
  4.379196e+01    2.476011e+04
  4.388351e+01    1.590977e+04
  4.397505e+01    8.168818e+03
  4.406659e+01    7.112895e+03
  4.415813e+01    7.108054e+03
  4.424967e+01    8.052997e+03
  4.434121e+01    1.791501e+04
  4.443275e+01    2.608548e+04
  4.452430e+01    9.694047e+03
  4.461584e+01    7.091918e+03
  4.470738e+01    6.632176e+03
  4.479892e+01    6.489580e+03
  4.489046e+01    6.408203e+03
  4.498200e+01    6.379609e+03
  4.507354e+01    6.366282e+03
  4.516509e+01    6.395559e+03
  4.525663e+01    6.510193e+03
  4.534817e+01    7.516315e+03
  4.543971e+01    1.247591e+04
  4.553125e+01    8.691761e+03
  4.562279e+01    6.561515e+03
  4.571433e+01    6.300634e+03
  4.580588e+01    6.240400e+03
  4.589742e+01    6.203146e+03
  4.598896e+01    6.165510e+03
  4.608050e+01    6.146378e+03
  4.617204e+01    6.136653e+03
  4.626358e+01    6.172048e+03
  4.635513e+01    6.346675e+03
  4.644667e+01    7.753535e+03
  4.653821e+01    7.305967e+03
  4.662975e+01    6.314510e+03
  4.672129e+01    6.202630e+03
  4.681283e+01    6.201534e+03
  4.690437e+01    6.203364e+03
  4.699592e+01    6.249506e+03
  4.708746e+01    6.297112e+03
  4.717900e+01    6.356021e+03
  4.727054e+01    6.436838e+03
  4.736208e+01    6.663458e+03
  4.745362e+01    7.722635e+03
  4.754516e+01    7.674970e+03
  4.763671e+01    7.183852e+03
  4.772825e+01    6.975000e+03
  4.781979e+01    6.619186e+03
  4.788844e+01    2.665495e+03