File: Output/ROCK_XRD/WAM39B_integrated/rampe2/wam39b_rampe_2_xrd_000007_integrated.dat
# == pyFAI calibration ==
# Distance Sample to Detector: 0.261615 m
# PONI: 2.023e-01, 2.348e-01 m
# Rotations: -0.026380 0.002005 0.000000 rad
#
# == Fit2d calibration ==
# Distance Sample-beamCenter: 261.707 mm
# Center: x=6119.331, y=5134.776 pix
# Tilt: 1.516 deg  TiltPlanRot: 4.347 deg
#
# Detector Rayonix SX165	 PixelSize= 3.950e-05, 3.950e-05 m
#    Detector has a mask: True
#    Detector has a dark current: False
#    detector has a flat field: False
#
# Wavelength: 1.12713e-10 m
# Mask applied: from detector
# Dark current applied: False
# Flat field applied: False
# Polarization factor: None
# Normalization factor: 1.0
# --> ROCK\\WAM39B_integrated\wam39b_rampe_2_xrd_000007_integrated.dat
#       2th_deg             I
  2.502596e+01    4.468839e+03
  2.511750e+01    1.836839e+04
  2.520905e+01    1.861772e+04
  2.530059e+01    1.872638e+04
  2.539213e+01    1.820326e+04
  2.548367e+01    1.811419e+04
  2.557521e+01    1.806850e+04
  2.566675e+01    1.810018e+04
  2.575829e+01    1.799614e+04
  2.584984e+01    1.792643e+04
  2.594138e+01    1.792470e+04
  2.603292e+01    1.795255e+04
  2.612446e+01    1.819824e+04
  2.621600e+01    1.989661e+04
  2.630754e+01    2.935102e+04
  2.639908e+01    5.204993e+04
  2.649063e+01    3.637343e+04
  2.658217e+01    2.030821e+04
  2.667371e+01    1.734830e+04
  2.676525e+01    1.646803e+04
  2.685679e+01    1.604602e+04
  2.694833e+01    1.576085e+04
  2.703988e+01    1.553497e+04
  2.713142e+01    1.536954e+04
  2.722296e+01    1.514889e+04
  2.731450e+01    1.499978e+04
  2.740604e+01    1.480690e+04
  2.749758e+01    1.470544e+04
  2.758912e+01    1.461352e+04
  2.768067e+01    1.453596e+04
  2.777221e+01    1.452962e+04
  2.786375e+01    1.494997e+04
  2.795529e+01    1.795061e+04
  2.804683e+01    1.739481e+04
  2.813837e+01    1.442940e+04
  2.822991e+01    1.381862e+04
  2.832146e+01    1.354320e+04
  2.841300e+01    1.331701e+04
  2.850454e+01    1.313994e+04
  2.859608e+01    1.298128e+04
  2.868762e+01    1.281609e+04
  2.877916e+01    1.267353e+04
  2.887070e+01    1.256834e+04
  2.896225e+01    1.242993e+04
  2.905379e+01    1.226035e+04
  2.914533e+01    1.203713e+04
  2.923687e+01    1.185859e+04
  2.932841e+01    1.168374e+04
  2.941995e+01    1.169774e+04
  2.951149e+01    1.279271e+04
  2.960304e+01    1.221763e+04
  2.969458e+01    1.111264e+04
  2.978612e+01    1.085371e+04
  2.987766e+01    1.071057e+04
  2.996920e+01    1.064451e+04
  3.006074e+01    1.063401e+04
  3.015228e+01    1.066269e+04
  3.024383e+01    1.071931e+04
  3.033537e+01    1.103167e+04
  3.042691e+01    1.224486e+04
  3.051845e+01    2.014977e+04
  3.060999e+01    5.274985e+04
  3.070153e+01    2.921167e+04
  3.079308e+01    1.438925e+04
  3.088462e+01    1.284826e+04
  3.097616e+01    2.213883e+04
  3.106770e+01    2.333613e+04
  3.115924e+01    1.185981e+04
  3.125078e+01    1.018749e+04
  3.134232e+01    9.779561e+03
  3.143387e+01    9.595707e+03
  3.152541e+01    9.465026e+03
  3.161695e+01    9.356330e+03
  3.170849e+01    9.285623e+03
  3.180003e+01    9.207805e+03
  3.189157e+01    9.142491e+03
  3.198311e+01    9.077146e+03
  3.207466e+01    9.018475e+03
  3.216620e+01    8.975832e+03
  3.225774e+01    8.972196e+03
  3.234928e+01    9.287948e+03
  3.244082e+01    1.050848e+04
  3.253236e+01    9.326654e+03
  3.262390e+01    8.895228e+03
  3.271545e+01    8.806416e+03
  3.280699e+01    8.708232e+03
  3.289853e+01    8.589984e+03
  3.299007e+01    8.487257e+03
  3.308161e+01    8.424452e+03
  3.317315e+01    8.371576e+03
  3.326469e+01    8.338093e+03
  3.335624e+01    8.310139e+03
  3.344778e+01    8.314287e+03
  3.353932e+01    8.372661e+03
  3.363086e+01    8.747018e+03
  3.372240e+01    1.224671e+04
  3.381394e+01    2.122612e+04
  3.390549e+01    1.110361e+04
  3.399703e+01    8.476503e+03
  3.408857e+01    8.083974e+03
  3.418011e+01    7.957024e+03
  3.427165e+01    7.884772e+03
  3.436319e+01    7.833651e+03
  3.445473e+01    7.771407e+03
  3.454628e+01    7.726611e+03
  3.463782e+01    7.670611e+03
  3.472936e+01    7.627939e+03
  3.482090e+01    7.578815e+03
  3.491244e+01    7.519043e+03
  3.500398e+01    7.466686e+03
  3.509552e+01    7.423386e+03
  3.518707e+01    7.398053e+03
  3.527861e+01    7.370507e+03
  3.537015e+01    7.306892e+03
  3.546169e+01    7.266855e+03
  3.555323e+01    7.232690e+03
  3.564477e+01    7.200898e+03
  3.573631e+01    7.176109e+03
  3.582786e+01    7.160759e+03
  3.591940e+01    7.165604e+03
  3.601094e+01    7.189814e+03
  3.610248e+01    7.225824e+03
  3.619402e+01    7.340287e+03
  3.628556e+01    8.028941e+03
  3.637710e+01    1.209853e+04
  3.646865e+01    9.440412e+03
  3.656019e+01    7.534308e+03
  3.665173e+01    7.324592e+03
  3.674327e+01    7.298043e+03
  3.683481e+01    7.311662e+03
  3.692635e+01    7.347364e+03
  3.701790e+01    7.398242e+03
  3.710944e+01    7.472150e+03
  3.720098e+01    7.622922e+03
  3.729252e+01    7.881164e+03
  3.738406e+01    8.516056e+03
  3.747560e+01    1.123532e+04
  3.756714e+01    3.758293e+04
  3.765869e+01    6.293141e+04
  3.775023e+01    1.656856e+04
  3.784177e+01    9.316501e+03
  3.793331e+01    8.185290e+03
  3.802485e+01    7.784958e+03
  3.811639e+01    7.604931e+03
  3.820793e+01    7.507867e+03
  3.829948e+01    7.461583e+03
  3.839102e+01    7.410562e+03
  3.848256e+01    7.409890e+03
  3.857410e+01    7.419859e+03
  3.866564e+01    7.475285e+03
  3.875718e+01    8.239223e+03
  3.884872e+01    9.640255e+03
  3.894027e+01    7.794552e+03
  3.903181e+01    7.405160e+03
  3.912335e+01    7.329712e+03
  3.921489e+01    7.289639e+03
  3.930643e+01    7.266635e+03
  3.939797e+01    7.251820e+03
  3.948951e+01    7.232754e+03
  3.958106e+01    7.176988e+03
  3.967260e+01    7.152681e+03
  3.976414e+01    7.120754e+03
  3.985568e+01    7.144515e+03
  3.994722e+01    7.451162e+03
  4.003876e+01    7.563692e+03
  4.013031e+01    7.130017e+03
  4.022185e+01    7.053395e+03
  4.031339e+01    7.024754e+03
  4.040493e+01    7.003497e+03
  4.049647e+01    6.994167e+03
  4.058801e+01    6.975664e+03
  4.067955e+01    6.971540e+03
  4.077110e+01    6.986673e+03
  4.086264e+01    7.025748e+03
  4.095418e+01    7.177471e+03
  4.104572e+01    8.347928e+03
  4.113726e+01    1.362073e+04
  4.122880e+01    9.201104e+03
  4.132034e+01    7.259658e+03
  4.141189e+01    7.027243e+03
  4.150343e+01    6.970170e+03
  4.159497e+01    6.932811e+03
  4.168651e+01    6.909700e+03
  4.177805e+01    6.880139e+03
  4.186959e+01    6.872413e+03
  4.196113e+01    6.873868e+03
  4.205268e+01    6.902767e+03
  4.214422e+01    7.049052e+03
  4.223576e+01    8.159459e+03
  4.232730e+01    7.532020e+03
  4.241884e+01    6.907989e+03
  4.251038e+01    6.834352e+03
  4.260192e+01    6.809378e+03
  4.269347e+01    6.795299e+03
  4.278501e+01    6.779761e+03
  4.287655e+01    6.791223e+03
  4.296809e+01    6.816387e+03
  4.305963e+01    6.876091e+03
  4.315117e+01    6.994797e+03
  4.324272e+01    7.763543e+03
  4.333426e+01    1.221788e+04
  4.342580e+01    9.329179e+03
  4.351734e+01    7.345380e+03
  4.360888e+01    7.416746e+03
  4.370042e+01    9.012640e+03
  4.379196e+01    2.171284e+04
  4.388351e+01    2.013195e+04
  4.397505e+01    9.525413e+03
  4.406659e+01    7.658009e+03
  4.415813e+01    7.470250e+03
  4.424967e+01    8.126079e+03
  4.434121e+01    1.491084e+04
  4.443275e+01    2.985527e+04
  4.452430e+01    1.192711e+04
  4.461584e+01    7.647775e+03
  4.470738e+01    7.016297e+03
  4.479892e+01    6.821461e+03
  4.489046e+01    6.728738e+03
  4.498200e+01    6.695885e+03
  4.507354e+01    6.681934e+03
  4.516509e+01    6.693474e+03
  4.525663e+01    6.785889e+03
  4.534817e+01    7.448223e+03
  4.543971e+01    1.229704e+04
  4.553125e+01    1.027158e+04
  4.562279e+01    7.024259e+03
  4.571433e+01    6.653546e+03
  4.580588e+01    6.558906e+03
  4.589742e+01    6.507199e+03
  4.598896e+01    6.466697e+03
  4.608050e+01    6.449074e+03
  4.617204e+01    6.446097e+03
  4.626358e+01    6.481087e+03
  4.635513e+01    6.605205e+03
  4.644667e+01    7.731942e+03
  4.653821e+01    8.065596e+03
  4.662975e+01    6.721118e+03
  4.672129e+01    6.537303e+03
  4.681283e+01    6.516918e+03
  4.690437e+01    6.522186e+03
  4.699592e+01    6.572465e+03
  4.708746e+01    6.620454e+03
  4.717900e+01    6.660346e+03
  4.727054e+01    6.761128e+03
  4.736208e+01    6.946895e+03
  4.745362e+01    7.827066e+03
  4.754516e+01    8.332131e+03
  4.763671e+01    7.609920e+03
  4.772825e+01    7.335216e+03
  4.781979e+01    6.958147e+03
  4.788844e+01    2.802012e+03