File: Output/ROCK_XRD/WAM39B_integrated/rampe2/wam39b_rampe_2_xrd_000011_integrated.dat
# == pyFAI calibration ==
# Distance Sample to Detector: 0.261615 m
# PONI: 2.023e-01, 2.348e-01 m
# Rotations: -0.026380 0.002005 0.000000 rad
#
# == Fit2d calibration ==
# Distance Sample-beamCenter: 261.707 mm
# Center: x=6119.331, y=5134.776 pix
# Tilt: 1.516 deg  TiltPlanRot: 4.347 deg
#
# Detector Rayonix SX165	 PixelSize= 3.950e-05, 3.950e-05 m
#    Detector has a mask: True
#    Detector has a dark current: False
#    detector has a flat field: False
#
# Wavelength: 1.12713e-10 m
# Mask applied: from detector
# Dark current applied: False
# Flat field applied: False
# Polarization factor: None
# Normalization factor: 1.0
# --> ROCK\\WAM39B_integrated\wam39b_rampe_2_xrd_000011_integrated.dat
#       2th_deg             I
  2.502596e+01    4.834939e+03
  2.511750e+01    1.981756e+04
  2.520905e+01    2.008182e+04
  2.530059e+01    2.020055e+04
  2.539213e+01    1.965384e+04
  2.548367e+01    1.962779e+04
  2.557521e+01    1.970602e+04
  2.566675e+01    1.993959e+04
  2.575829e+01    1.993467e+04
  2.584984e+01    1.976103e+04
  2.594138e+01    1.960404e+04
  2.603292e+01    1.942780e+04
  2.612446e+01    1.960095e+04
  2.621600e+01    2.118446e+04
  2.630754e+01    3.007346e+04
  2.639908e+01    5.119923e+04
  2.649063e+01    4.184774e+04
  2.658217e+01    2.255117e+04
  2.667371e+01    1.882996e+04
  2.676525e+01    1.778998e+04
  2.685679e+01    1.730948e+04
  2.694833e+01    1.700295e+04
  2.703988e+01    1.674632e+04
  2.713142e+01    1.656144e+04
  2.722296e+01    1.634055e+04
  2.731450e+01    1.617074e+04
  2.740604e+01    1.598709e+04
  2.749758e+01    1.588243e+04
  2.758912e+01    1.581662e+04
  2.768067e+01    1.578043e+04
  2.777221e+01    1.583554e+04
  2.786375e+01    1.634981e+04
  2.795529e+01    1.941762e+04
  2.804683e+01    1.943163e+04
  2.813837e+01    1.597347e+04
  2.822991e+01    1.516721e+04
  2.832146e+01    1.477092e+04
  2.841300e+01    1.444782e+04
  2.850454e+01    1.420298e+04
  2.859608e+01    1.401390e+04
  2.868762e+01    1.379979e+04
  2.877916e+01    1.365847e+04
  2.887070e+01    1.356786e+04
  2.896225e+01    1.344902e+04
  2.905379e+01    1.323825e+04
  2.914533e+01    1.298483e+04
  2.923687e+01    1.275297e+04
  2.932841e+01    1.255398e+04
  2.941995e+01    1.251744e+04
  2.951149e+01    1.361994e+04
  2.960304e+01    1.326469e+04
  2.969458e+01    1.196649e+04
  2.978612e+01    1.168268e+04
  2.987766e+01    1.152932e+04
  2.996920e+01    1.144891e+04
  3.006074e+01    1.143356e+04
  3.015228e+01    1.145668e+04
  3.024383e+01    1.150982e+04
  3.033537e+01    1.180541e+04
  3.042691e+01    1.290228e+04
  3.051845e+01    1.917447e+04
  3.060999e+01    5.010639e+04
  3.070153e+01    3.626077e+04
  3.079308e+01    1.644026e+04
  3.088462e+01    1.379931e+04
  3.097616e+01    2.253025e+04
  3.106770e+01    2.620366e+04
  3.115924e+01    1.303610e+04
  3.125078e+01    1.099239e+04
  3.134232e+01    1.053545e+04
  3.143387e+01    1.034142e+04
  3.152541e+01    1.018738e+04
  3.161695e+01    1.007897e+04
  3.170849e+01    9.992144e+03
  3.180003e+01    9.911159e+03
  3.189157e+01    9.848374e+03
  3.198311e+01    9.786162e+03
  3.207466e+01    9.727091e+03
  3.216620e+01    9.673428e+03
  3.225774e+01    9.661505e+03
  3.234928e+01    9.928215e+03
  3.244082e+01    1.128047e+04
  3.253236e+01    1.009734e+04
  3.262390e+01    9.590202e+03
  3.271545e+01    9.488122e+03
  3.280699e+01    9.390462e+03
  3.289853e+01    9.252069e+03
  3.299007e+01    9.128974e+03
  3.308161e+01    9.059267e+03
  3.317315e+01    9.008771e+03
  3.326469e+01    8.976336e+03
  3.335624e+01    8.944731e+03
  3.344778e+01    8.937312e+03
  3.353932e+01    8.993688e+03
  3.363086e+01    9.343355e+03
  3.372240e+01    1.248770e+04
  3.381394e+01    2.292373e+04
  3.390549e+01    1.245758e+04
  3.399703e+01    9.170870e+03
  3.408857e+01    8.710760e+03
  3.418011e+01    8.561441e+03
  3.427165e+01    8.480315e+03
  3.436319e+01    8.438011e+03
  3.445473e+01    8.401458e+03
  3.454628e+01    8.367326e+03
  3.463782e+01    8.330587e+03
  3.472936e+01    8.299063e+03
  3.482090e+01    8.245674e+03
  3.491244e+01    8.175017e+03
  3.500398e+01    8.098128e+03
  3.509552e+01    8.019994e+03
  3.518707e+01    7.970111e+03
  3.527861e+01    7.935026e+03
  3.537015e+01    7.868283e+03
  3.546169e+01    7.814869e+03
  3.555323e+01    7.775998e+03
  3.564477e+01    7.740085e+03
  3.573631e+01    7.717002e+03
  3.582786e+01    7.700616e+03
  3.591940e+01    7.705708e+03
  3.601094e+01    7.730683e+03
  3.610248e+01    7.760426e+03
  3.619402e+01    7.874949e+03
  3.628556e+01    8.481711e+03
  3.637710e+01    1.268444e+04
  3.646865e+01    1.049726e+04
  3.656019e+01    8.141913e+03
  3.665173e+01    7.885361e+03
  3.674327e+01    7.850354e+03
  3.683481e+01    7.858952e+03
  3.692635e+01    7.890481e+03
  3.701790e+01    7.942446e+03
  3.710944e+01    8.030596e+03
  3.720098e+01    8.170686e+03
  3.729252e+01    8.429352e+03
  3.738406e+01    9.051857e+03
  3.747560e+01    1.152055e+04
  3.756714e+01    3.518156e+04
  3.765869e+01    7.091825e+04
  3.775023e+01    1.955794e+04
  3.784177e+01    1.019744e+04
  3.793331e+01    8.840650e+03
  3.802485e+01    8.384429e+03
  3.811639e+01    8.186607e+03
  3.820793e+01    8.068234e+03
  3.829948e+01    8.026871e+03
  3.839102e+01    7.972688e+03
  3.848256e+01    7.968940e+03
  3.857410e+01    7.982491e+03
  3.866564e+01    8.052062e+03
  3.875718e+01    8.712783e+03
  3.884872e+01    1.044500e+04
  3.894027e+01    8.485389e+03
  3.903181e+01    7.984838e+03
  3.912335e+01    7.892314e+03
  3.921489e+01    7.853016e+03
  3.930643e+01    7.812576e+03
  3.939797e+01    7.804948e+03
  3.948951e+01    7.766896e+03
  3.958106e+01    7.724234e+03
  3.967260e+01    7.677595e+03
  3.976414e+01    7.650210e+03
  3.985568e+01    7.668707e+03
  3.994722e+01    7.940733e+03
  4.003876e+01    8.167315e+03
  4.013031e+01    7.678184e+03
  4.022185e+01    7.576388e+03
  4.031339e+01    7.537504e+03
  4.040493e+01    7.526725e+03
  4.049647e+01    7.506201e+03
  4.058801e+01    7.498492e+03
  4.067955e+01    7.487617e+03
  4.077110e+01    7.506426e+03
  4.086264e+01    7.551971e+03
  4.095418e+01    7.687882e+03
  4.104572e+01    8.693688e+03
  4.113726e+01    1.437974e+04
  4.122880e+01    1.037546e+04
  4.132034e+01    7.874115e+03
  4.141189e+01    7.601165e+03
  4.150343e+01    7.516337e+03
  4.159497e+01    7.474415e+03
  4.168651e+01    7.457744e+03
  4.177805e+01    7.423915e+03
  4.186959e+01    7.409182e+03
  4.196113e+01    7.416331e+03
  4.205268e+01    7.434171e+03
  4.214422e+01    7.550037e+03
  4.223576e+01    8.643312e+03
  4.232730e+01    8.224517e+03
  4.241884e+01    7.431822e+03
  4.251038e+01    7.341991e+03
  4.260192e+01    7.313171e+03
  4.269347e+01    7.290178e+03
  4.278501e+01    7.289361e+03
  4.287655e+01    7.285950e+03
  4.296809e+01    7.315483e+03
  4.305963e+01    7.363082e+03
  4.315117e+01    7.481123e+03
  4.324272e+01    8.123815e+03
  4.333426e+01    1.271062e+04
  4.342580e+01    1.049774e+04
  4.351734e+01    7.922318e+03
  4.360888e+01    7.908535e+03
  4.370042e+01    9.086852e+03
  4.379196e+01    1.852895e+04
  4.388351e+01    2.381757e+04
  4.397505e+01    1.145948e+04
  4.406659e+01    8.442961e+03
  4.415813e+01    8.054830e+03
  4.424967e+01    8.600300e+03
  4.434121e+01    1.427822e+04
  4.443275e+01    3.252237e+04
  4.452430e+01    1.407482e+04
  4.461584e+01    8.327576e+03
  4.470738e+01    7.555529e+03
  4.479892e+01    7.343154e+03
  4.489046e+01    7.223774e+03
  4.498200e+01    7.191799e+03
  4.507354e+01    7.164806e+03
  4.516509e+01    7.181736e+03
  4.525663e+01    7.254104e+03
  4.534817e+01    7.818584e+03
  4.543971e+01    1.252009e+04
  4.553125e+01    1.170183e+04
  4.562279e+01    7.645923e+03
  4.571433e+01    7.177633e+03
  4.580588e+01    7.066930e+03
  4.589742e+01    7.016864e+03
  4.598896e+01    6.990938e+03
  4.608050e+01    6.947841e+03
  4.617204e+01    6.937086e+03
  4.626358e+01    6.966604e+03
  4.635513e+01    7.081476e+03
  4.644667e+01    8.103809e+03
  4.653821e+01    8.899215e+03
  4.662975e+01    7.325035e+03
  4.672129e+01    7.092717e+03
  4.681283e+01    7.057505e+03
  4.690437e+01    7.054424e+03
  4.699592e+01    7.086957e+03
  4.708746e+01    7.130086e+03
  4.717900e+01    7.189505e+03
  4.727054e+01    7.275110e+03
  4.736208e+01    7.455041e+03
  4.745362e+01    8.244810e+03
  4.754516e+01    9.082194e+03
  4.763671e+01    8.239272e+03
  4.772825e+01    7.904469e+03
  4.781979e+01    7.500360e+03
  4.788844e+01    3.007426e+03