File: Output/ROCK_XRD/WAM39B_integrated/rampe2/wam39b_rampe_2_xrd_000008_integrated.dat
# == pyFAI calibration ==
# Distance Sample to Detector: 0.261615 m
# PONI: 2.023e-01, 2.348e-01 m
# Rotations: -0.026380 0.002005 0.000000 rad
#
# == Fit2d calibration ==
# Distance Sample-beamCenter: 261.707 mm
# Center: x=6119.331, y=5134.776 pix
# Tilt: 1.516 deg  TiltPlanRot: 4.347 deg
#
# Detector Rayonix SX165	 PixelSize= 3.950e-05, 3.950e-05 m
#    Detector has a mask: True
#    Detector has a dark current: False
#    detector has a flat field: False
#
# Wavelength: 1.12713e-10 m
# Mask applied: from detector
# Dark current applied: False
# Flat field applied: False
# Polarization factor: None
# Normalization factor: 1.0
# --> ROCK\\WAM39B_integrated\wam39b_rampe_2_xrd_000008_integrated.dat
#       2th_deg             I
  2.502596e+01    4.903065e+03
  2.511750e+01    2.013392e+04
  2.520905e+01    2.044542e+04
  2.530059e+01    2.054788e+04
  2.539213e+01    1.997747e+04
  2.548367e+01    1.987858e+04
  2.557521e+01    1.987647e+04
  2.566675e+01    1.996533e+04
  2.575829e+01    1.990014e+04
  2.584984e+01    1.981430e+04
  2.594138e+01    1.977187e+04
  2.603292e+01    1.973184e+04
  2.612446e+01    1.991767e+04
  2.621600e+01    2.153571e+04
  2.630754e+01    3.074670e+04
  2.639908e+01    5.423657e+04
  2.649063e+01    4.201936e+04
  2.658217e+01    2.274471e+04
  2.667371e+01    1.910097e+04
  2.676525e+01    1.808742e+04
  2.685679e+01    1.762367e+04
  2.694833e+01    1.729469e+04
  2.703988e+01    1.704492e+04
  2.713142e+01    1.684783e+04
  2.722296e+01    1.662105e+04
  2.731450e+01    1.644547e+04
  2.740604e+01    1.625813e+04
  2.749758e+01    1.613298e+04
  2.758912e+01    1.605230e+04
  2.768067e+01    1.597760e+04
  2.777221e+01    1.596108e+04
  2.786375e+01    1.638927e+04
  2.795529e+01    1.941992e+04
  2.804683e+01    1.948214e+04
  2.813837e+01    1.600563e+04
  2.822991e+01    1.524629e+04
  2.832146e+01    1.493512e+04
  2.841300e+01    1.465918e+04
  2.850454e+01    1.443104e+04
  2.859608e+01    1.425628e+04
  2.868762e+01    1.406384e+04
  2.877916e+01    1.390476e+04
  2.887070e+01    1.380123e+04
  2.896225e+01    1.366566e+04
  2.905379e+01    1.346078e+04
  2.914533e+01    1.321702e+04
  2.923687e+01    1.300101e+04
  2.932841e+01    1.280802e+04
  2.941995e+01    1.276268e+04
  2.951149e+01    1.385874e+04
  2.960304e+01    1.351375e+04
  2.969458e+01    1.218756e+04
  2.978612e+01    1.189599e+04
  2.987766e+01    1.173261e+04
  2.996920e+01    1.166112e+04
  3.006074e+01    1.163938e+04
  3.015228e+01    1.166109e+04
  3.024383e+01    1.172501e+04
  3.033537e+01    1.203402e+04
  3.042691e+01    1.318723e+04
  3.051845e+01    2.022904e+04
  3.060999e+01    5.409040e+04
  3.070153e+01    3.522595e+04
  3.079308e+01    1.639663e+04
  3.088462e+01    1.397554e+04
  3.097616e+01    2.278712e+04
  3.106770e+01    2.677986e+04
  3.115924e+01    1.329671e+04
  3.125078e+01    1.118346e+04
  3.134232e+01    1.072309e+04
  3.143387e+01    1.051589e+04
  3.152541e+01    1.037065e+04
  3.161695e+01    1.024805e+04
  3.170849e+01    1.016619e+04
  3.180003e+01    1.006864e+04
  3.189157e+01    1.000403e+04
  3.198311e+01    9.944423e+03
  3.207466e+01    9.879422e+03
  3.216620e+01    9.822245e+03
  3.225774e+01    9.821496e+03
  3.234928e+01    1.009749e+04
  3.244082e+01    1.147691e+04
  3.253236e+01    1.029204e+04
  3.262390e+01    9.750211e+03
  3.271545e+01    9.663393e+03
  3.280699e+01    9.547075e+03
  3.289853e+01    9.408975e+03
  3.299007e+01    9.294271e+03
  3.308161e+01    9.227730e+03
  3.317315e+01    9.165271e+03
  3.326469e+01    9.111387e+03
  3.335624e+01    9.095897e+03
  3.344778e+01    9.082136e+03
  3.353932e+01    9.152711e+03
  3.363086e+01    9.494271e+03
  3.372240e+01    1.263514e+04
  3.381394e+01    2.333215e+04
  3.390549e+01    1.272753e+04
  3.399703e+01    9.337815e+03
  3.408857e+01    8.872418e+03
  3.418011e+01    8.704593e+03
  3.427165e+01    8.630654e+03
  3.436319e+01    8.585788e+03
  3.445473e+01    8.525572e+03
  3.454628e+01    8.482264e+03
  3.463782e+01    8.425427e+03
  3.472936e+01    8.371826e+03
  3.482090e+01    8.309940e+03
  3.491244e+01    8.250213e+03
  3.500398e+01    8.187259e+03
  3.509552e+01    8.128941e+03
  3.518707e+01    8.089529e+03
  3.527861e+01    8.066422e+03
  3.537015e+01    7.999155e+03
  3.546169e+01    7.954285e+03
  3.555323e+01    7.911188e+03
  3.564477e+01    7.867877e+03
  3.573631e+01    7.853399e+03
  3.582786e+01    7.830116e+03
  3.591940e+01    7.836729e+03
  3.601094e+01    7.859233e+03
  3.610248e+01    7.890761e+03
  3.619402e+01    8.002626e+03
  3.628556e+01    8.608047e+03
  3.637710e+01    1.285603e+04
  3.646865e+01    1.071716e+04
  3.656019e+01    8.280854e+03
  3.665173e+01    8.013743e+03
  3.674327e+01    7.983025e+03
  3.683481e+01    7.990822e+03
  3.692635e+01    8.022434e+03
  3.701790e+01    8.086540e+03
  3.710944e+01    8.161734e+03
  3.720098e+01    8.310158e+03
  3.729252e+01    8.558873e+03
  3.738406e+01    9.190770e+03
  3.747560e+01    1.166910e+04
  3.756714e+01    3.531413e+04
  3.765869e+01    7.242685e+04
  3.775023e+01    2.009533e+04
  3.784177e+01    1.038779e+04
  3.793331e+01    8.997117e+03
  3.802485e+01    8.518772e+03
  3.811639e+01    8.332386e+03
  3.820793e+01    8.207312e+03
  3.829948e+01    8.144095e+03
  3.839102e+01    8.107633e+03
  3.848256e+01    8.089915e+03
  3.857410e+01    8.104488e+03
  3.866564e+01    8.163797e+03
  3.875718e+01    8.829923e+03
  3.884872e+01    1.061885e+04
  3.894027e+01    8.631953e+03
  3.903181e+01    8.107727e+03
  3.912335e+01    8.016220e+03
  3.921489e+01    7.971839e+03
  3.930643e+01    7.940545e+03
  3.939797e+01    7.920191e+03
  3.948951e+01    7.899028e+03
  3.958106e+01    7.861525e+03
  3.967260e+01    7.810824e+03
  3.976414e+01    7.775110e+03
  3.985568e+01    7.797000e+03
  3.994722e+01    8.073860e+03
  4.003876e+01    8.307576e+03
  4.013031e+01    7.807473e+03
  4.022185e+01    7.707219e+03
  4.031339e+01    7.671042e+03
  4.040493e+01    7.660366e+03
  4.049647e+01    7.636561e+03
  4.058801e+01    7.608329e+03
  4.067955e+01    7.614680e+03
  4.077110e+01    7.633837e+03
  4.086264e+01    7.675628e+03
  4.095418e+01    7.814638e+03
  4.104572e+01    8.799564e+03
  4.113726e+01    1.458401e+04
  4.122880e+01    1.058908e+04
  4.132034e+01    7.988274e+03
  4.141189e+01    7.697575e+03
  4.150343e+01    7.620776e+03
  4.159497e+01    7.581543e+03
  4.168651e+01    7.569667e+03
  4.177805e+01    7.536835e+03
  4.186959e+01    7.522227e+03
  4.196113e+01    7.524254e+03
  4.205268e+01    7.541768e+03
  4.214422e+01    7.663985e+03
  4.223576e+01    8.765158e+03
  4.232730e+01    8.371082e+03
  4.241884e+01    7.561060e+03
  4.251038e+01    7.458519e+03
  4.260192e+01    7.429704e+03
  4.269347e+01    7.416417e+03
  4.278501e+01    7.410175e+03
  4.287655e+01    7.409056e+03
  4.296809e+01    7.432359e+03
  4.305963e+01    7.495972e+03
  4.315117e+01    7.603057e+03
  4.324272e+01    8.250135e+03
  4.333426e+01    1.288229e+04
  4.342580e+01    1.072011e+04
  4.351734e+01    8.055913e+03
  4.360888e+01    8.046612e+03
  4.370042e+01    9.342279e+03
  4.379196e+01    2.041938e+04
  4.388351e+01    2.380778e+04
  4.397505e+01    1.120669e+04
  4.406659e+01    8.489619e+03
  4.415813e+01    8.168591e+03
  4.424967e+01    8.717223e+03
  4.434121e+01    1.437828e+04
  4.443275e+01    3.309731e+04
  4.452430e+01    1.445485e+04
  4.461584e+01    8.486267e+03
  4.470738e+01    7.686130e+03
  4.479892e+01    7.464974e+03
  4.489046e+01    7.356056e+03
  4.498200e+01    7.310949e+03
  4.507354e+01    7.296962e+03
  4.516509e+01    7.304110e+03
  4.525663e+01    7.387616e+03
  4.534817e+01    7.936603e+03
  4.543971e+01    1.265827e+04
  4.553125e+01    1.195401e+04
  4.562279e+01    7.781293e+03
  4.571433e+01    7.274083e+03
  4.580588e+01    7.170188e+03
  4.589742e+01    7.120996e+03
  4.598896e+01    7.082626e+03
  4.608050e+01    7.050072e+03
  4.617204e+01    7.039407e+03
  4.626358e+01    7.076532e+03
  4.635513e+01    7.191613e+03
  4.644667e+01    8.202595e+03
  4.653821e+01    9.026130e+03
  4.662975e+01    7.411244e+03
  4.672129e+01    7.174012e+03
  4.681283e+01    7.144846e+03
  4.690437e+01    7.145275e+03
  4.699592e+01    7.172588e+03
  4.708746e+01    7.240576e+03
  4.717900e+01    7.290665e+03
  4.727054e+01    7.390489e+03
  4.736208e+01    7.551837e+03
  4.745362e+01    8.375830e+03
  4.754516e+01    9.233012e+03
  4.763671e+01    8.363520e+03
  4.772825e+01    8.019886e+03
  4.781979e+01    7.590513e+03
  4.788844e+01    3.059310e+03