File: Output/ROCK_XRD/WAM39B_integrated/rampe2/wam39b_rampe_2_xrd_000018_integrated.dat
# == pyFAI calibration ==
# Distance Sample to Detector: 0.261615 m
# PONI: 2.023e-01, 2.348e-01 m
# Rotations: -0.026380 0.002005 0.000000 rad
#
# == Fit2d calibration ==
# Distance Sample-beamCenter: 261.707 mm
# Center: x=6119.331, y=5134.776 pix
# Tilt: 1.516 deg  TiltPlanRot: 4.347 deg
#
# Detector Rayonix SX165	 PixelSize= 3.950e-05, 3.950e-05 m
#    Detector has a mask: True
#    Detector has a dark current: False
#    detector has a flat field: False
#
# Wavelength: 1.12713e-10 m
# Mask applied: from detector
# Dark current applied: False
# Flat field applied: False
# Polarization factor: None
# Normalization factor: 1.0
# --> ROCK\\WAM39B_integrated\wam39b_rampe_2_xrd_000018_integrated.dat
#       2th_deg             I
  2.502596e+01    4.239289e+03
  2.511750e+01    1.738766e+04
  2.520905e+01    1.763756e+04
  2.530059e+01    1.775651e+04
  2.539213e+01    1.730260e+04
  2.548367e+01    1.733624e+04
  2.557521e+01    1.759419e+04
  2.566675e+01    1.787403e+04
  2.575829e+01    1.781830e+04
  2.584984e+01    1.754632e+04
  2.594138e+01    1.725662e+04
  2.603292e+01    1.710394e+04
  2.612446e+01    1.738177e+04
  2.621600e+01    1.939505e+04
  2.630754e+01    2.989610e+04
  2.639908e+01    4.584978e+04
  2.649063e+01    3.222535e+04
  2.658217e+01    1.894035e+04
  2.667371e+01    1.635568e+04
  2.676525e+01    1.558445e+04
  2.685679e+01    1.518075e+04
  2.694833e+01    1.491779e+04
  2.703988e+01    1.471291e+04
  2.713142e+01    1.454921e+04
  2.722296e+01    1.436246e+04
  2.731450e+01    1.421159e+04
  2.740604e+01    1.405769e+04
  2.749758e+01    1.397636e+04
  2.758912e+01    1.396878e+04
  2.768067e+01    1.398512e+04
  2.777221e+01    1.415832e+04
  2.786375e+01    1.497013e+04
  2.795529e+01    1.846410e+04
  2.804683e+01    1.635833e+04
  2.813837e+01    1.401078e+04
  2.822991e+01    1.335196e+04
  2.832146e+01    1.297750e+04
  2.841300e+01    1.267518e+04
  2.850454e+01    1.246411e+04
  2.859608e+01    1.227309e+04
  2.868762e+01    1.211231e+04
  2.877916e+01    1.201224e+04
  2.887070e+01    1.194748e+04
  2.896225e+01    1.185114e+04
  2.905379e+01    1.162332e+04
  2.914533e+01    1.138364e+04
  2.923687e+01    1.119380e+04
  2.932841e+01    1.103705e+04
  2.941995e+01    1.114683e+04
  2.951149e+01    1.235169e+04
  2.960304e+01    1.126084e+04
  2.969458e+01    1.048145e+04
  2.978612e+01    1.026878e+04
  2.987766e+01    1.014481e+04
  2.996920e+01    1.009086e+04
  3.006074e+01    1.007902e+04
  3.015228e+01    1.010401e+04
  3.024383e+01    1.017600e+04
  3.033537e+01    1.050492e+04
  3.042691e+01    1.182129e+04
  3.051845e+01    1.982824e+04
  3.060999e+01    4.620823e+04
  3.070153e+01    2.635433e+04
  3.079308e+01    1.350619e+04
  3.088462e+01    1.286176e+04
  3.097616e+01    2.424401e+04
  3.106770e+01    1.890712e+04
  3.115924e+01    1.066172e+04
  3.125078e+01    9.567063e+03
  3.134232e+01    9.244110e+03
  3.143387e+01    9.085881e+03
  3.152541e+01    8.968879e+03
  3.161695e+01    8.878430e+03
  3.170849e+01    8.811093e+03
  3.180003e+01    8.737285e+03
  3.189157e+01    8.683557e+03
  3.198311e+01    8.641657e+03
  3.207466e+01    8.598581e+03
  3.216620e+01    8.548799e+03
  3.225774e+01    8.549756e+03
  3.234928e+01    9.040302e+03
  3.244082e+01    9.903118e+03
  3.253236e+01    8.678941e+03
  3.262390e+01    8.427448e+03
  3.271545e+01    8.371278e+03
  3.280699e+01    8.255363e+03
  3.289853e+01    8.141086e+03
  3.299007e+01    8.046095e+03
  3.308161e+01    7.984114e+03
  3.317315e+01    7.954384e+03
  3.326469e+01    7.925807e+03
  3.335624e+01    7.909088e+03
  3.344778e+01    7.908725e+03
  3.353932e+01    7.993228e+03
  3.363086e+01    8.548388e+03
  3.372240e+01    1.383693e+04
  3.381394e+01    1.878155e+04
  3.390549e+01    9.466831e+03
  3.399703e+01    7.929100e+03
  3.408857e+01    7.647194e+03
  3.418011e+01    7.533931e+03
  3.427165e+01    7.482312e+03
  3.436319e+01    7.450788e+03
  3.445473e+01    7.413825e+03
  3.454628e+01    7.388828e+03
  3.463782e+01    7.383298e+03
  3.472936e+01    7.377382e+03
  3.482090e+01    7.337964e+03
  3.491244e+01    7.278161e+03
  3.500398e+01    7.199784e+03
  3.509552e+01    7.116740e+03
  3.518707e+01    7.059455e+03
  3.527861e+01    7.014529e+03
  3.537015e+01    6.960008e+03
  3.546169e+01    6.912217e+03
  3.555323e+01    6.873794e+03
  3.564477e+01    6.843732e+03
  3.573631e+01    6.819970e+03
  3.582786e+01    6.813070e+03
  3.591940e+01    6.817211e+03
  3.601094e+01    6.839961e+03
  3.610248e+01    6.874848e+03
  3.619402e+01    7.025753e+03
  3.628556e+01    8.184974e+03
  3.637710e+01    1.182954e+04
  3.646865e+01    8.152682e+03
  3.656019e+01    7.087375e+03
  3.665173e+01    6.961057e+03
  3.674327e+01    6.942500e+03
  3.683481e+01    6.957894e+03
  3.692635e+01    6.996203e+03
  3.701790e+01    7.045318e+03
  3.710944e+01    7.136226e+03
  3.720098e+01    7.286699e+03
  3.729252e+01    7.587661e+03
  3.738406e+01    8.386095e+03
  3.747560e+01    1.270304e+04
  3.756714e+01    5.053156e+04
  3.765869e+01    4.720859e+04
  3.775023e+01    1.244957e+04
  3.784177e+01    8.457696e+03
  3.793331e+01    7.664835e+03
  3.802485e+01    7.345156e+03
  3.811639e+01    7.218526e+03
  3.820793e+01    7.135095e+03
  3.829948e+01    7.089373e+03
  3.839102e+01    7.057296e+03
  3.848256e+01    7.057365e+03
  3.857410e+01    7.089469e+03
  3.866564e+01    7.202502e+03
  3.875718e+01    8.409547e+03
  3.884872e+01    8.787513e+03
  3.894027e+01    7.242929e+03
  3.903181e+01    7.021586e+03
  3.912335e+01    6.962534e+03
  3.921489e+01    6.929379e+03
  3.930643e+01    6.904340e+03
  3.939797e+01    6.895955e+03
  3.948951e+01    6.867521e+03
  3.958106e+01    6.834861e+03
  3.967260e+01    6.800720e+03
  3.976414e+01    6.769711e+03
  3.985568e+01    6.806546e+03
  3.994722e+01    7.224371e+03
  4.003876e+01    7.039267e+03
  4.013031e+01    6.743810e+03
  4.022185e+01    6.687564e+03
  4.031339e+01    6.674927e+03
  4.040493e+01    6.655188e+03
  4.049647e+01    6.638584e+03
  4.058801e+01    6.631743e+03
  4.067955e+01    6.633100e+03
  4.077110e+01    6.659638e+03
  4.086264e+01    6.710631e+03
  4.095418e+01    6.937787e+03
  4.104572e+01    9.066425e+03
  4.113726e+01    1.275058e+04
  4.122880e+01    7.841698e+03
  4.132034e+01    6.872749e+03
  4.141189e+01    6.724035e+03
  4.150343e+01    6.660266e+03
  4.159497e+01    6.626428e+03
  4.168651e+01    6.610007e+03
  4.177805e+01    6.594108e+03
  4.186959e+01    6.589729e+03
  4.196113e+01    6.618017e+03
  4.205268e+01    6.644243e+03
  4.214422e+01    6.912395e+03
  4.223576e+01    7.916201e+03
  4.232730e+01    6.877159e+03
  4.241884e+01    6.537439e+03
  4.251038e+01    6.492865e+03
  4.260192e+01    6.457541e+03
  4.269347e+01    6.456339e+03
  4.278501e+01    6.449698e+03
  4.287655e+01    6.449376e+03
  4.296809e+01    6.480430e+03
  4.305963e+01    6.549332e+03
  4.315117e+01    6.713293e+03
  4.324272e+01    8.165772e+03
  4.333426e+01    1.184971e+04
  4.342580e+01    7.854783e+03
  4.351734e+01    6.922500e+03
  4.360888e+01    7.142401e+03
  4.370042e+01    9.114709e+03
  4.379196e+01    2.022235e+04
  4.388351e+01    1.763702e+04
  4.397505e+01    8.919022e+03
  4.406659e+01    7.318558e+03
  4.415813e+01    7.233587e+03
  4.424967e+01    8.392705e+03
  4.434121e+01    2.021122e+04
  4.443275e+01    2.440009e+04
  4.452430e+01    9.093142e+03
  4.461584e+01    7.003813e+03
  4.470738e+01    6.593300e+03
  4.479892e+01    6.462780e+03
  4.489046e+01    6.380309e+03
  4.498200e+01    6.361043e+03
  4.507354e+01    6.352792e+03
  4.516509e+01    6.381146e+03
  4.525663e+01    6.525745e+03
  4.534817e+01    7.808550e+03
  4.543971e+01    1.262562e+04
  4.553125e+01    8.232193e+03
  4.562279e+01    6.528250e+03
  4.571433e+01    6.327894e+03
  4.580588e+01    6.266626e+03
  4.589742e+01    6.244486e+03
  4.598896e+01    6.211055e+03
  4.608050e+01    6.177612e+03
  4.617204e+01    6.165093e+03
  4.626358e+01    6.201302e+03
  4.635513e+01    6.437032e+03
  4.644667e+01    7.985559e+03
  4.653821e+01    7.201563e+03
  4.662975e+01    6.392326e+03
  4.672129e+01    6.291915e+03
  4.681283e+01    6.277053e+03
  4.690437e+01    6.268873e+03
  4.699592e+01    6.275784e+03
  4.708746e+01    6.332298e+03
  4.717900e+01    6.370430e+03
  4.727054e+01    6.466813e+03
  4.736208e+01    6.695699e+03
  4.745362e+01    7.847352e+03
  4.754516e+01    7.545757e+03
  4.763671e+01    7.183768e+03
  4.772825e+01    6.987900e+03
  4.781979e+01    6.629144e+03
  4.788844e+01    2.678956e+03