File: Output/ROCK_XRD/WAM39B_integrated/rampe2/wam39b_rampe_2_xrd_000012_integrated.dat
# == pyFAI calibration ==
# Distance Sample to Detector: 0.261615 m
# PONI: 2.023e-01, 2.348e-01 m
# Rotations: -0.026380 0.002005 0.000000 rad
#
# == Fit2d calibration ==
# Distance Sample-beamCenter: 261.707 mm
# Center: x=6119.331, y=5134.776 pix
# Tilt: 1.516 deg  TiltPlanRot: 4.347 deg
#
# Detector Rayonix SX165	 PixelSize= 3.950e-05, 3.950e-05 m
#    Detector has a mask: True
#    Detector has a dark current: False
#    detector has a flat field: False
#
# Wavelength: 1.12713e-10 m
# Mask applied: from detector
# Dark current applied: False
# Flat field applied: False
# Polarization factor: None
# Normalization factor: 1.0
# --> ROCK\\WAM39B_integrated\wam39b_rampe_2_xrd_000012_integrated.dat
#       2th_deg             I
  2.502596e+01    4.924297e+03
  2.511750e+01    2.017095e+04
  2.520905e+01    2.045572e+04
  2.530059e+01    2.060456e+04
  2.539213e+01    2.001580e+04
  2.548367e+01    1.999776e+04
  2.557521e+01    2.011052e+04
  2.566675e+01    2.035841e+04
  2.575829e+01    2.036865e+04
  2.584984e+01    2.018130e+04
  2.594138e+01    2.000132e+04
  2.603292e+01    1.981108e+04
  2.612446e+01    1.993738e+04
  2.621600e+01    2.154669e+04
  2.630754e+01    3.051689e+04
  2.639908e+01    5.159591e+04
  2.649063e+01    4.287650e+04
  2.658217e+01    2.303456e+04
  2.667371e+01    1.916741e+04
  2.676525e+01    1.811904e+04
  2.685679e+01    1.763979e+04
  2.694833e+01    1.730569e+04
  2.703988e+01    1.705501e+04
  2.713142e+01    1.685760e+04
  2.722296e+01    1.664089e+04
  2.731450e+01    1.646150e+04
  2.740604e+01    1.627712e+04
  2.749758e+01    1.618565e+04
  2.758912e+01    1.611651e+04
  2.768067e+01    1.608397e+04
  2.777221e+01    1.616028e+04
  2.786375e+01    1.668353e+04
  2.795529e+01    1.983302e+04
  2.804683e+01    1.987163e+04
  2.813837e+01    1.632356e+04
  2.822991e+01    1.546917e+04
  2.832146e+01    1.506564e+04
  2.841300e+01    1.472638e+04
  2.850454e+01    1.445474e+04
  2.859608e+01    1.425511e+04
  2.868762e+01    1.404849e+04
  2.877916e+01    1.390725e+04
  2.887070e+01    1.381832e+04
  2.896225e+01    1.369775e+04
  2.905379e+01    1.347865e+04
  2.914533e+01    1.320931e+04
  2.923687e+01    1.298035e+04
  2.932841e+01    1.278734e+04
  2.941995e+01    1.275172e+04
  2.951149e+01    1.385615e+04
  2.960304e+01    1.350177e+04
  2.969458e+01    1.218600e+04
  2.978612e+01    1.188467e+04
  2.987766e+01    1.173998e+04
  2.996920e+01    1.165417e+04
  3.006074e+01    1.163836e+04
  3.015228e+01    1.165277e+04
  3.024383e+01    1.171758e+04
  3.033537e+01    1.201131e+04
  3.042691e+01    1.310504e+04
  3.051845e+01    1.930000e+04
  3.060999e+01    5.039398e+04
  3.070153e+01    3.743238e+04
  3.079308e+01    1.683762e+04
  3.088462e+01    1.406134e+04
  3.097616e+01    2.292118e+04
  3.106770e+01    2.673355e+04
  3.115924e+01    1.328965e+04
  3.125078e+01    1.120252e+04
  3.134232e+01    1.072998e+04
  3.143387e+01    1.052674e+04
  3.152541e+01    1.037850e+04
  3.161695e+01    1.026137e+04
  3.170849e+01    1.016902e+04
  3.180003e+01    1.009076e+04
  3.189157e+01    1.002857e+04
  3.198311e+01    9.954486e+03
  3.207466e+01    9.894261e+03
  3.216620e+01    9.847433e+03
  3.225774e+01    9.833654e+03
  3.234928e+01    1.010110e+04
  3.244082e+01    1.148459e+04
  3.253236e+01    1.028515e+04
  3.262390e+01    9.743979e+03
  3.271545e+01    9.665467e+03
  3.280699e+01    9.554880e+03
  3.289853e+01    9.419117e+03
  3.299007e+01    9.305032e+03
  3.308161e+01    9.228963e+03
  3.317315e+01    9.168819e+03
  3.326469e+01    9.129863e+03
  3.335624e+01    9.108644e+03
  3.344778e+01    9.108850e+03
  3.353932e+01    9.160803e+03
  3.363086e+01    9.513679e+03
  3.372240e+01    1.269600e+04
  3.381394e+01    2.336094e+04
  3.390549e+01    1.270130e+04
  3.399703e+01    9.338668e+03
  3.408857e+01    8.865646e+03
  3.418011e+01    8.710028e+03
  3.427165e+01    8.639841e+03
  3.436319e+01    8.597333e+03
  3.445473e+01    8.548558e+03
  3.454628e+01    8.512388e+03
  3.463782e+01    8.488073e+03
  3.472936e+01    8.462258e+03
  3.482090e+01    8.408873e+03
  3.491244e+01    8.339893e+03
  3.500398e+01    8.253268e+03
  3.509552e+01    8.172402e+03
  3.518707e+01    8.124214e+03
  3.527861e+01    8.085539e+03
  3.537015e+01    8.016399e+03
  3.546169e+01    7.959911e+03
  3.555323e+01    7.919856e+03
  3.564477e+01    7.877732e+03
  3.573631e+01    7.853597e+03
  3.582786e+01    7.840918e+03
  3.591940e+01    7.844006e+03
  3.601094e+01    7.865791e+03
  3.610248e+01    7.902902e+03
  3.619402e+01    8.004162e+03
  3.628556e+01    8.632141e+03
  3.637710e+01    1.291025e+04
  3.646865e+01    1.070272e+04
  3.656019e+01    8.290156e+03
  3.665173e+01    8.029044e+03
  3.674327e+01    7.993740e+03
  3.683481e+01    8.008642e+03
  3.692635e+01    8.038938e+03
  3.701790e+01    8.088915e+03
  3.710944e+01    8.179165e+03
  3.720098e+01    8.323533e+03
  3.729252e+01    8.584882e+03
  3.738406e+01    9.207568e+03
  3.747560e+01    1.172365e+04
  3.756714e+01    3.578146e+04
  3.765869e+01    7.232932e+04
  3.775023e+01    1.999180e+04
  3.784177e+01    1.039489e+04
  3.793331e+01    9.004931e+03
  3.802485e+01    8.536663e+03
  3.811639e+01    8.346370e+03
  3.820793e+01    8.220571e+03
  3.829948e+01    8.167974e+03
  3.839102e+01    8.124626e+03
  3.848256e+01    8.113143e+03
  3.857410e+01    8.136431e+03
  3.866564e+01    8.198851e+03
  3.875718e+01    8.877502e+03
  3.884872e+01    1.064709e+04
  3.894027e+01    8.650938e+03
  3.903181e+01    8.132132e+03
  3.912335e+01    8.036611e+03
  3.921489e+01    7.998651e+03
  3.930643e+01    7.955562e+03
  3.939797e+01    7.946275e+03
  3.948951e+01    7.923319e+03
  3.958106e+01    7.869088e+03
  3.967260e+01    7.826285e+03
  3.976414e+01    7.789031e+03
  3.985568e+01    7.810534e+03
  3.994722e+01    8.088546e+03
  4.003876e+01    8.321596e+03
  4.013031e+01    7.811023e+03
  4.022185e+01    7.717919e+03
  4.031339e+01    7.683807e+03
  4.040493e+01    7.672115e+03
  4.049647e+01    7.641906e+03
  4.058801e+01    7.632159e+03
  4.067955e+01    7.624126e+03
  4.077110e+01    7.646745e+03
  4.086264e+01    7.686270e+03
  4.095418e+01    7.824816e+03
  4.104572e+01    8.844079e+03
  4.113726e+01    1.465725e+04
  4.122880e+01    1.058315e+04
  4.132034e+01    8.029852e+03
  4.141189e+01    7.745776e+03
  4.150343e+01    7.665551e+03
  4.159497e+01    7.620434e+03
  4.168651e+01    7.606193e+03
  4.177805e+01    7.566736e+03
  4.186959e+01    7.550315e+03
  4.196113e+01    7.553343e+03
  4.205268e+01    7.576792e+03
  4.214422e+01    7.701301e+03
  4.223576e+01    8.798445e+03
  4.232730e+01    8.374618e+03
  4.241884e+01    7.573302e+03
  4.251038e+01    7.479386e+03
  4.260192e+01    7.433614e+03
  4.269347e+01    7.433198e+03
  4.278501e+01    7.421468e+03
  4.287655e+01    7.415969e+03
  4.296809e+01    7.440175e+03
  4.305963e+01    7.501932e+03
  4.315117e+01    7.615558e+03
  4.324272e+01    8.271468e+03
  4.333426e+01    1.294958e+04
  4.342580e+01    1.070248e+04
  4.351734e+01    8.067577e+03
  4.360888e+01    8.046951e+03
  4.370042e+01    9.195969e+03
  4.379196e+01    1.846735e+04
  4.388351e+01    2.442387e+04
  4.397505e+01    1.181711e+04
  4.406659e+01    8.622379e+03
  4.415813e+01    8.214949e+03
  4.424967e+01    8.753950e+03
  4.434121e+01    1.453449e+04
  4.443275e+01    3.314256e+04
  4.452430e+01    1.436770e+04
  4.461584e+01    8.481913e+03
  4.470738e+01    7.693344e+03
  4.479892e+01    7.466150e+03
  4.489046e+01    7.356754e+03
  4.498200e+01    7.333978e+03
  4.507354e+01    7.304375e+03
  4.516509e+01    7.314428e+03
  4.525663e+01    7.410139e+03
  4.534817e+01    7.966182e+03
  4.543971e+01    1.273424e+04
  4.553125e+01    1.191549e+04
  4.562279e+01    7.805243e+03
  4.571433e+01    7.302586e+03
  4.580588e+01    7.204347e+03
  4.589742e+01    7.160979e+03
  4.598896e+01    7.118794e+03
  4.608050e+01    7.080618e+03
  4.617204e+01    7.072067e+03
  4.626358e+01    7.104136e+03
  4.635513e+01    7.210724e+03
  4.644667e+01    8.255685e+03
  4.653821e+01    9.074653e+03
  4.662975e+01    7.480640e+03
  4.672129e+01    7.236397e+03
  4.681283e+01    7.196244e+03
  4.690437e+01    7.197310e+03
  4.699592e+01    7.214269e+03
  4.708746e+01    7.281205e+03
  4.717900e+01    7.327913e+03
  4.727054e+01    7.410141e+03
  4.736208e+01    7.592537e+03
  4.745362e+01    8.393957e+03
  4.754516e+01    9.254265e+03
  4.763671e+01    8.396267e+03
  4.772825e+01    8.054729e+03
  4.781979e+01    7.636847e+03
  4.788844e+01    3.072217e+03