File: Output/ROCK_XRD/WAM39B_integrated/rampe2/wam39b_rampe_2_xrd_000009_integrated.dat
# == pyFAI calibration ==
# Distance Sample to Detector: 0.261615 m
# PONI: 2.023e-01, 2.348e-01 m
# Rotations: -0.026380 0.002005 0.000000 rad
#
# == Fit2d calibration ==
# Distance Sample-beamCenter: 261.707 mm
# Center: x=6119.331, y=5134.776 pix
# Tilt: 1.516 deg  TiltPlanRot: 4.347 deg
#
# Detector Rayonix SX165	 PixelSize= 3.950e-05, 3.950e-05 m
#    Detector has a mask: True
#    Detector has a dark current: False
#    detector has a flat field: False
#
# Wavelength: 1.12713e-10 m
# Mask applied: from detector
# Dark current applied: False
# Flat field applied: False
# Polarization factor: None
# Normalization factor: 1.0
# --> ROCK\\WAM39B_integrated\wam39b_rampe_2_xrd_000009_integrated.dat
#       2th_deg             I
  2.502596e+01    4.313230e+03
  2.511750e+01    1.774131e+04
  2.520905e+01    1.797301e+04
  2.530059e+01    1.809398e+04
  2.539213e+01    1.759525e+04
  2.548367e+01    1.753034e+04
  2.557521e+01    1.759294e+04
  2.566675e+01    1.774604e+04
  2.575829e+01    1.770849e+04
  2.584984e+01    1.758959e+04
  2.594138e+01    1.750528e+04
  2.603292e+01    1.744290e+04
  2.612446e+01    1.772253e+04
  2.621600e+01    1.974120e+04
  2.630754e+01    3.064684e+04
  2.639908e+01    5.007307e+04
  2.649063e+01    3.209905e+04
  2.658217e+01    1.908268e+04
  2.667371e+01    1.662633e+04
  2.676525e+01    1.585731e+04
  2.685679e+01    1.548730e+04
  2.694833e+01    1.522405e+04
  2.703988e+01    1.499059e+04
  2.713142e+01    1.483007e+04
  2.722296e+01    1.463776e+04
  2.731450e+01    1.448676e+04
  2.740604e+01    1.432975e+04
  2.749758e+01    1.422672e+04
  2.758912e+01    1.416208e+04
  2.768067e+01    1.411746e+04
  2.777221e+01    1.417095e+04
  2.786375e+01    1.481009e+04
  2.795529e+01    1.818297e+04
  2.804683e+01    1.637104e+04
  2.813837e+01    1.402774e+04
  2.822991e+01    1.347302e+04
  2.832146e+01    1.318950e+04
  2.841300e+01    1.293413e+04
  2.850454e+01    1.273138e+04
  2.859608e+01    1.255518e+04
  2.868762e+01    1.239077e+04
  2.877916e+01    1.228627e+04
  2.887070e+01    1.218361e+04
  2.896225e+01    1.206255e+04
  2.905379e+01    1.187034e+04
  2.914533e+01    1.164678e+04
  2.923687e+01    1.145476e+04
  2.932841e+01    1.130058e+04
  2.941995e+01    1.138103e+04
  2.951149e+01    1.257820e+04
  2.960304e+01    1.155937e+04
  2.969458e+01    1.069385e+04
  2.978612e+01    1.048920e+04
  2.987766e+01    1.036299e+04
  2.996920e+01    1.030148e+04
  3.006074e+01    1.030193e+04
  3.015228e+01    1.030861e+04
  3.024383e+01    1.040579e+04
  3.033537e+01    1.077086e+04
  3.042691e+01    1.223789e+04
  3.051845e+01    2.182254e+04
  3.060999e+01    4.994343e+04
  3.070153e+01    2.529524e+04
  3.079308e+01    1.350099e+04
  3.088462e+01    1.291091e+04
  3.097616e+01    2.419267e+04
  3.106770e+01    1.983556e+04
  3.115924e+01    1.095928e+04
  3.125078e+01    9.786904e+03
  3.134232e+01    9.429775e+03
  3.143387e+01    9.273450e+03
  3.152541e+01    9.155994e+03
  3.161695e+01    9.061435e+03
  3.170849e+01    8.986198e+03
  3.180003e+01    8.904939e+03
  3.189157e+01    8.848511e+03
  3.198311e+01    8.791732e+03
  3.207466e+01    8.733226e+03
  3.216620e+01    8.690549e+03
  3.225774e+01    8.709514e+03
  3.234928e+01    9.169442e+03
  3.244082e+01    1.013864e+04
  3.253236e+01    8.896332e+03
  3.262390e+01    8.609183e+03
  3.271545e+01    8.530456e+03
  3.280699e+01    8.422974e+03
  3.289853e+01    8.314501e+03
  3.299007e+01    8.217937e+03
  3.308161e+01    8.156198e+03
  3.317315e+01    8.108619e+03
  3.326469e+01    8.079027e+03
  3.335624e+01    8.054360e+03
  3.344778e+01    8.063659e+03
  3.353932e+01    8.144301e+03
  3.363086e+01    8.664950e+03
  3.372240e+01    1.367167e+04
  3.381394e+01    1.951257e+04
  3.390549e+01    9.812270e+03
  3.399703e+01    8.112375e+03
  3.408857e+01    7.803712e+03
  3.418011e+01    7.689234e+03
  3.427165e+01    7.630424e+03
  3.436319e+01    7.595917e+03
  3.445473e+01    7.559294e+03
  3.454628e+01    7.523516e+03
  3.463782e+01    7.482158e+03
  3.472936e+01    7.430371e+03
  3.482090e+01    7.377453e+03
  3.491244e+01    7.317112e+03
  3.500398e+01    7.255562e+03
  3.509552e+01    7.210497e+03
  3.518707e+01    7.172631e+03
  3.527861e+01    7.140887e+03
  3.537015e+01    7.079774e+03
  3.546169e+01    7.036168e+03
  3.555323e+01    7.007189e+03
  3.564477e+01    6.970325e+03
  3.573631e+01    6.960559e+03
  3.582786e+01    6.943778e+03
  3.591940e+01    6.953383e+03
  3.601094e+01    6.967194e+03
  3.610248e+01    7.011210e+03
  3.619402e+01    7.149533e+03
  3.628556e+01    8.229992e+03
  3.637710e+01    1.206554e+04
  3.646865e+01    8.427588e+03
  3.656019e+01    7.237993e+03
  3.665173e+01    7.091596e+03
  3.674327e+01    7.076412e+03
  3.683481e+01    7.086828e+03
  3.692635e+01    7.121137e+03
  3.701790e+01    7.183231e+03
  3.710944e+01    7.264044e+03
  3.720098e+01    7.414900e+03
  3.729252e+01    7.712265e+03
  3.738406e+01    8.489514e+03
  3.747560e+01    1.250162e+04
  3.756714e+01    4.897180e+04
  3.765869e+01    5.050357e+04
  3.775023e+01    1.311830e+04
  3.784177e+01    8.668748e+03
  3.793331e+01    7.820680e+03
  3.802485e+01    7.495349e+03
  3.811639e+01    7.351238e+03
  3.820793e+01    7.265557e+03
  3.829948e+01    7.210837e+03
  3.839102e+01    7.176538e+03
  3.848256e+01    7.174002e+03
  3.857410e+01    7.191201e+03
  3.866564e+01    7.308626e+03
  3.875718e+01    8.450536e+03
  3.884872e+01    9.029837e+03
  3.894027e+01    7.403547e+03
  3.903181e+01    7.150309e+03
  3.912335e+01    7.097642e+03
  3.921489e+01    7.072285e+03
  3.930643e+01    7.041027e+03
  3.939797e+01    7.028105e+03
  3.948951e+01    6.984783e+03
  3.958106e+01    6.954507e+03
  3.967260e+01    6.920277e+03
  3.976414e+01    6.886733e+03
  3.985568e+01    6.936804e+03
  3.994722e+01    7.346011e+03
  4.003876e+01    7.206213e+03
  4.013031e+01    6.873013e+03
  4.022185e+01    6.826005e+03
  4.031339e+01    6.797215e+03
  4.040493e+01    6.854198e+03
  4.049647e+01    6.768252e+03
  4.058801e+01    6.756775e+03
  4.067955e+01    6.756234e+03
  4.077110e+01    6.789555e+03
  4.086264e+01    6.831083e+03
  4.095418e+01    7.040454e+03
  4.104572e+01    8.997992e+03
  4.113726e+01    1.309667e+04
  4.122880e+01    8.086238e+03
  4.132034e+01    6.978729e+03
  4.141189e+01    6.818193e+03
  4.150343e+01    6.757933e+03
  4.159497e+01    6.725566e+03
  4.168651e+01    6.711258e+03
  4.177805e+01    6.681369e+03
  4.186959e+01    6.681369e+03
  4.196113e+01    6.682812e+03
  4.205268e+01    6.717185e+03
  4.214422e+01    6.967618e+03
  4.223576e+01    8.041134e+03
  4.232730e+01    7.045420e+03
  4.241884e+01    6.675681e+03
  4.251038e+01    6.614550e+03
  4.260192e+01    6.581546e+03
  4.269347e+01    6.585521e+03
  4.278501e+01    6.576555e+03
  4.287655e+01    6.576160e+03
  4.296809e+01    6.614108e+03
  4.305963e+01    6.681819e+03
  4.315117e+01    6.843561e+03
  4.324272e+01    8.159322e+03
  4.333426e+01    1.213576e+04
  4.342580e+01    8.156929e+03
  4.351734e+01    7.081428e+03
  4.360888e+01    7.321527e+03
  4.370042e+01    9.763934e+03
  4.379196e+01    2.238426e+04
  4.388351e+01    1.671911e+04
  4.397505e+01    8.739383e+03
  4.406659e+01    7.378849e+03
  4.415813e+01    7.340485e+03
  4.424967e+01    8.405902e+03
  4.434121e+01    1.944957e+04
  4.443275e+01    2.581171e+04
  4.452430e+01    9.559142e+03
  4.461584e+01    7.186660e+03
  4.470738e+01    6.740196e+03
  4.479892e+01    6.589572e+03
  4.489046e+01    6.510508e+03
  4.498200e+01    6.489444e+03
  4.507354e+01    6.465719e+03
  4.516509e+01    6.500528e+03
  4.525663e+01    6.642348e+03
  4.534817e+01    7.787676e+03
  4.543971e+01    1.280524e+04
  4.553125e+01    8.610320e+03
  4.562279e+01    6.659437e+03
  4.571433e+01    6.426062e+03
  4.580588e+01    6.354231e+03
  4.589742e+01    6.312376e+03
  4.598896e+01    6.279631e+03
  4.608050e+01    6.258853e+03
  4.617204e+01    6.262182e+03
  4.626358e+01    6.303842e+03
  4.635513e+01    6.514643e+03
  4.644667e+01    8.022253e+03
  4.653821e+01    7.389319e+03
  4.662975e+01    6.463985e+03
  4.672129e+01    6.344853e+03
  4.681283e+01    6.334027e+03
  4.690437e+01    6.337732e+03
  4.699592e+01    6.377447e+03
  4.708746e+01    6.441451e+03
  4.717900e+01    6.472035e+03
  4.727054e+01    6.570782e+03
  4.736208e+01    6.795489e+03
  4.745362e+01    7.937999e+03
  4.754516e+01    7.746880e+03
  4.763671e+01    7.305160e+03
  4.772825e+01    7.113188e+03
  4.781979e+01    6.740104e+03
  4.788844e+01    2.718635e+03