File: Output/ROCK_XRD/WAM39B_integrated/rampe2/wam39b_rampe_2_xrd_000003_integrated.dat
# == pyFAI calibration ==
# Distance Sample to Detector: 0.261615 m
# PONI: 2.023e-01, 2.348e-01 m
# Rotations: -0.026380 0.002005 0.000000 rad
#
# == Fit2d calibration ==
# Distance Sample-beamCenter: 261.707 mm
# Center: x=6119.331, y=5134.776 pix
# Tilt: 1.516 deg  TiltPlanRot: 4.347 deg
#
# Detector Rayonix SX165	 PixelSize= 3.950e-05, 3.950e-05 m
#    Detector has a mask: True
#    Detector has a dark current: False
#    detector has a flat field: False
#
# Wavelength: 1.12713e-10 m
# Mask applied: from detector
# Dark current applied: False
# Flat field applied: False
# Polarization factor: None
# Normalization factor: 1.0
# --> ROCK\\WAM39B_integrated\wam39b_rampe_2_xrd_000003_integrated.dat
#       2th_deg             I
  2.502596e+01    4.471017e+03
  2.511750e+01    1.835061e+04
  2.520905e+01    1.861674e+04
  2.530059e+01    1.871916e+04
  2.539213e+01    1.817853e+04
  2.548367e+01    1.802786e+04
  2.557521e+01    1.791637e+04
  2.566675e+01    1.784201e+04
  2.575829e+01    1.763330e+04
  2.584984e+01    1.742949e+04
  2.594138e+01    1.748054e+04
  2.603292e+01    1.771927e+04
  2.612446e+01    1.846183e+04
  2.621600e+01    2.209528e+04
  2.630754e+01    4.243725e+04
  2.639908e+01    5.502546e+04
  2.649063e+01    2.359956e+04
  2.658217e+01    1.801569e+04
  2.667371e+01    1.676912e+04
  2.676525e+01    1.625989e+04
  2.685679e+01    1.594405e+04
  2.694833e+01    1.568455e+04
  2.703988e+01    1.548213e+04
  2.713142e+01    1.532487e+04
  2.722296e+01    1.512794e+04
  2.731450e+01    1.496422e+04
  2.740604e+01    1.479390e+04
  2.749758e+01    1.467061e+04
  2.758912e+01    1.457950e+04
  2.768067e+01    1.448415e+04
  2.777221e+01    1.451638e+04
  2.786375e+01    1.541685e+04
  2.795529e+01    1.900295e+04
  2.804683e+01    1.570269e+04
  2.813837e+01    1.403901e+04
  2.822991e+01    1.359732e+04
  2.832146e+01    1.338590e+04
  2.841300e+01    1.318909e+04
  2.850454e+01    1.301613e+04
  2.859608e+01    1.286206e+04
  2.868762e+01    1.267539e+04
  2.877916e+01    1.249697e+04
  2.887070e+01    1.233405e+04
  2.896225e+01    1.214367e+04
  2.905379e+01    1.196325e+04
  2.914533e+01    1.178740e+04
  2.923687e+01    1.165329e+04
  2.932841e+01    1.156325e+04
  2.941995e+01    1.184060e+04
  2.951149e+01    1.305203e+04
  2.960304e+01    1.158367e+04
  2.969458e+01    1.098146e+04
  2.978612e+01    1.079477e+04
  2.987766e+01    1.067611e+04
  2.996920e+01    1.062595e+04
  3.006074e+01    1.062992e+04
  3.015228e+01    1.067293e+04
  3.024383e+01    1.081751e+04
  3.033537e+01    1.144953e+04
  3.042691e+01    1.525324e+04
  3.051845e+01    4.853507e+04
  3.060999e+01    4.370982e+04
  3.070153e+01    1.475037e+04
  3.079308e+01    1.178811e+04
  3.088462e+01    1.398807e+04
  3.097616e+01    2.744910e+04
  3.106770e+01    1.663435e+04
  3.115924e+01    1.077176e+04
  3.125078e+01    9.950560e+03
  3.134232e+01    9.676452e+03
  3.143387e+01    9.528757e+03
  3.152541e+01    9.416930e+03
  3.161695e+01    9.315726e+03
  3.170849e+01    9.241645e+03
  3.180003e+01    9.169766e+03
  3.189157e+01    9.101724e+03
  3.198311e+01    9.043560e+03
  3.207466e+01    8.988712e+03
  3.216620e+01    8.945159e+03
  3.225774e+01    8.981278e+03
  3.234928e+01    9.736968e+03
  3.244082e+01    1.006492e+04
  3.253236e+01    8.890816e+03
  3.262390e+01    8.685916e+03
  3.271545e+01    8.602165e+03
  3.280699e+01    8.536540e+03
  3.289853e+01    8.485423e+03
  3.299007e+01    8.421132e+03
  3.308161e+01    8.383294e+03
  3.317315e+01    8.340272e+03
  3.326469e+01    8.307689e+03
  3.335624e+01    8.294173e+03
  3.344778e+01    8.316736e+03
  3.353932e+01    8.451373e+03
  3.363086e+01    9.346782e+03
  3.372240e+01    1.714979e+04
  3.381394e+01    1.699616e+04
  3.390549e+01    9.234665e+03
  3.399703e+01    8.221198e+03
  3.408857e+01    7.992725e+03
  3.418011e+01    7.875239e+03
  3.427165e+01    7.805154e+03
  3.436319e+01    7.755434e+03
  3.445473e+01    7.695801e+03
  3.454628e+01    7.642024e+03
  3.463782e+01    7.595894e+03
  3.472936e+01    7.558928e+03
  3.482090e+01    7.503921e+03
  3.491244e+01    7.466207e+03
  3.500398e+01    7.431896e+03
  3.509552e+01    7.394425e+03
  3.518707e+01    7.375227e+03
  3.527861e+01    7.346305e+03
  3.537015e+01    7.291924e+03
  3.546169e+01    7.249695e+03
  3.555323e+01    7.219491e+03
  3.564477e+01    7.186561e+03
  3.573631e+01    7.172055e+03
  3.582786e+01    7.163314e+03
  3.591940e+01    7.167886e+03
  3.601094e+01    7.183246e+03
  3.610248e+01    7.234406e+03
  3.619402e+01    7.458911e+03
  3.628556e+01    9.443878e+03
  3.637710e+01    1.183379e+04
  3.646865e+01    7.993385e+03
  3.656019e+01    7.382136e+03
  3.665173e+01    7.293326e+03
  3.674327e+01    7.291541e+03
  3.683481e+01    7.309606e+03
  3.692635e+01    7.352657e+03
  3.701790e+01    7.412557e+03
  3.710944e+01    7.522914e+03
  3.720098e+01    7.704769e+03
  3.729252e+01    8.074659e+03
  3.738406e+01    9.214237e+03
  3.747560e+01    1.695712e+04
  3.756714e+01    6.504427e+04
  3.765869e+01    3.454086e+04
  3.775023e+01    1.105661e+04
  3.784177e+01    8.538594e+03
  3.793331e+01    7.940543e+03
  3.802485e+01    7.662021e+03
  3.811639e+01    7.548771e+03
  3.820793e+01    7.464310e+03
  3.829948e+01    7.415376e+03
  3.839102e+01    7.398527e+03
  3.848256e+01    7.387774e+03
  3.857410e+01    7.419554e+03
  3.866564e+01    7.632734e+03
  3.875718e+01    9.328929e+03
  3.884872e+01    8.595639e+03
  3.894027e+01    7.481796e+03
  3.903181e+01    7.357362e+03
  3.912335e+01    7.303722e+03
  3.921489e+01    7.277222e+03
  3.930643e+01    7.257122e+03
  3.939797e+01    7.254175e+03
  3.948951e+01    7.198159e+03
  3.958106e+01    7.177678e+03
  3.967260e+01    7.138915e+03
  3.976414e+01    7.124149e+03
  3.985568e+01    7.213654e+03
  3.994722e+01    7.668680e+03
  4.003876e+01    7.262803e+03
  4.013031e+01    7.072241e+03
  4.022185e+01    7.039143e+03
  4.031339e+01    7.022775e+03
  4.040493e+01    6.998272e+03
  4.049647e+01    6.978979e+03
  4.058801e+01    6.964404e+03
  4.067955e+01    6.969530e+03
  4.077110e+01    6.998175e+03
  4.086264e+01    7.059097e+03
  4.095418e+01    7.430616e+03
  4.104572e+01    1.109183e+04
  4.113726e+01    1.188398e+04
  4.122880e+01    7.582578e+03
  4.132034e+01    7.039318e+03
  4.141189e+01    6.923580e+03
  4.150343e+01    6.890674e+03
  4.159497e+01    6.873949e+03
  4.168651e+01    6.874800e+03
  4.177805e+01    6.853936e+03
  4.186959e+01    6.841231e+03
  4.196113e+01    6.844933e+03
  4.205268e+01    6.896648e+03
  4.214422e+01    7.458497e+03
  4.223576e+01    8.060758e+03
  4.232730e+01    7.006678e+03
  4.241884e+01    6.839616e+03
  4.251038e+01    6.813881e+03
  4.260192e+01    6.791042e+03
  4.269347e+01    6.793060e+03
  4.278501e+01    6.794008e+03
  4.287655e+01    6.798864e+03
  4.296809e+01    6.847368e+03
  4.305963e+01    6.934586e+03
  4.315117e+01    7.207380e+03
  4.324272e+01    9.897844e+03
  4.333426e+01    1.144213e+04
  4.342580e+01    7.688455e+03
  4.351734e+01    7.396353e+03
  4.360888e+01    8.820247e+03
  4.370042e+01    2.560011e+04
  4.379196e+01    1.935301e+04
  4.388351e+01    8.489625e+03
  4.397505e+01    7.286702e+03
  4.406659e+01    7.167675e+03
  4.415813e+01    7.463340e+03
  4.424967e+01    9.847339e+03
  4.434121e+01    2.716857e+04
  4.443275e+01    1.877000e+04
  4.452430e+01    8.317786e+03
  4.461584e+01    7.162487e+03
  4.470738e+01    6.869058e+03
  4.479892e+01    6.761228e+03
  4.489046e+01    6.708484e+03
  4.498200e+01    6.700568e+03
  4.507354e+01    6.684142e+03
  4.516509e+01    6.725677e+03
  4.525663e+01    6.995775e+03
  4.534817e+01    9.536186e+03
  4.543971e+01    1.243759e+04
  4.553125e+01    7.596253e+03
  4.562279e+01    6.717688e+03
  4.571433e+01    6.588096e+03
  4.580588e+01    6.521077e+03
  4.589742e+01    6.479046e+03
  4.598896e+01    6.449152e+03
  4.608050e+01    6.429627e+03
  4.617204e+01    6.431629e+03
  4.626358e+01    6.494770e+03
  4.635513e+01    6.992235e+03
  4.644667e+01    8.421593e+03
  4.653821e+01    6.962656e+03
  4.662975e+01    6.529969e+03
  4.672129e+01    6.474519e+03
  4.681283e+01    6.491790e+03
  4.690437e+01    6.501170e+03
  4.699592e+01    6.554114e+03
  4.708746e+01    6.604011e+03
  4.717900e+01    6.668119e+03
  4.727054e+01    6.781479e+03
  4.736208e+01    7.181928e+03
  4.745362e+01    8.316790e+03
  4.754516e+01    7.561901e+03
  4.763671e+01    7.500477e+03
  4.772825e+01    7.306883e+03
  4.781979e+01    6.938391e+03
  4.788844e+01    2.792411e+03