File: Output/ROCK_XRD/WAM39B_integrated/rampe2/wam39b_rampe_2_xrd_000002_integrated.dat
# == pyFAI calibration ==
# Distance Sample to Detector: 0.261615 m
# PONI: 2.023e-01, 2.348e-01 m
# Rotations: -0.026380 0.002005 0.000000 rad
#
# == Fit2d calibration ==
# Distance Sample-beamCenter: 261.707 mm
# Center: x=6119.331, y=5134.776 pix
# Tilt: 1.516 deg  TiltPlanRot: 4.347 deg
#
# Detector Rayonix SX165	 PixelSize= 3.950e-05, 3.950e-05 m
#    Detector has a mask: True
#    Detector has a dark current: False
#    detector has a flat field: False
#
# Wavelength: 1.12713e-10 m
# Mask applied: from detector
# Dark current applied: False
# Flat field applied: False
# Polarization factor: None
# Normalization factor: 1.0
# --> ROCK\\WAM39B_integrated\wam39b_rampe_2_xrd_000002_integrated.dat
#       2th_deg             I
  2.502596e+01    4.079538e+03
  2.511750e+01    1.680100e+04
  2.520905e+01    1.701313e+04
  2.530059e+01    1.711223e+04
  2.539213e+01    1.662872e+04
  2.548367e+01    1.650615e+04
  2.557521e+01    1.641210e+04
  2.566675e+01    1.635724e+04
  2.575829e+01    1.615983e+04
  2.584984e+01    1.602040e+04
  2.594138e+01    1.608194e+04
  2.603292e+01    1.642829e+04
  2.612446e+01    1.755627e+04
  2.621600e+01    2.392311e+04
  2.630754e+01    5.104581e+04
  2.639908e+01    3.539647e+04
  2.649063e+01    1.862834e+04
  2.658217e+01    1.596243e+04
  2.667371e+01    1.519207e+04
  2.676525e+01    1.480925e+04
  2.685679e+01    1.457676e+04
  2.694833e+01    1.436723e+04
  2.703988e+01    1.418337e+04
  2.713142e+01    1.402942e+04
  2.722296e+01    1.384736e+04
  2.731450e+01    1.371027e+04
  2.740604e+01    1.354836e+04
  2.749758e+01    1.344952e+04
  2.758912e+01    1.336231e+04
  2.768067e+01    1.331498e+04
  2.777221e+01    1.342191e+04
  2.786375e+01    1.501901e+04
  2.795529e+01    1.722443e+04
  2.804683e+01    1.365705e+04
  2.813837e+01    1.276098e+04
  2.822991e+01    1.244361e+04
  2.832146e+01    1.226763e+04
  2.841300e+01    1.208556e+04
  2.850454e+01    1.194919e+04
  2.859608e+01    1.178363e+04
  2.868762e+01    1.161728e+04
  2.877916e+01    1.146280e+04
  2.887070e+01    1.131899e+04
  2.896225e+01    1.114016e+04
  2.905379e+01    1.097357e+04
  2.914533e+01    1.081941e+04
  2.923687e+01    1.071064e+04
  2.932841e+01    1.065763e+04
  2.941995e+01    1.126429e+04
  2.951149e+01    1.175070e+04
  2.960304e+01    1.039983e+04
  2.969458e+01    1.006346e+04
  2.978612e+01    9.922159e+03
  2.987766e+01    9.826263e+03
  2.996920e+01    9.793019e+03
  3.006074e+01    9.817810e+03
  3.015228e+01    9.883565e+03
  3.024383e+01    1.016232e+04
  3.033537e+01    1.144882e+04
  3.042691e+01    2.224283e+04
  3.051845e+01    5.905415e+04
  3.060999e+01    2.050857e+04
  3.070153e+01    1.144818e+04
  3.079308e+01    1.081945e+04
  3.088462e+01    1.611103e+04
  3.097616e+01    2.469092e+04
  3.106770e+01    1.209705e+04
  3.115924e+01    9.523338e+03
  3.125078e+01    9.042751e+03
  3.134232e+01    8.856322e+03
  3.143387e+01    8.734764e+03
  3.152541e+01    8.647629e+03
  3.161695e+01    8.550196e+03
  3.170849e+01    8.489369e+03
  3.180003e+01    8.417385e+03
  3.189157e+01    8.359976e+03
  3.198311e+01    8.303713e+03
  3.207466e+01    8.261425e+03
  3.216620e+01    8.236799e+03
  3.225774e+01    8.370653e+03
  3.234928e+01    9.432500e+03
  3.244082e+01    8.724957e+03
  3.253236e+01    8.087856e+03
  3.262390e+01    7.959316e+03
  3.271545e+01    7.893792e+03
  3.280699e+01    7.840799e+03
  3.289853e+01    7.803296e+03
  3.299007e+01    7.748908e+03
  3.308161e+01    7.709434e+03
  3.317315e+01    7.678247e+03
  3.326469e+01    7.646888e+03
  3.335624e+01    7.647108e+03
  3.344778e+01    7.688153e+03
  3.353932e+01    7.922644e+03
  3.363086e+01    9.928013e+03
  3.372240e+01    1.915140e+04
  3.381394e+01    1.154449e+04
  3.390549e+01    7.940619e+03
  3.399703e+01    7.477624e+03
  3.408857e+01    7.316960e+03
  3.418011e+01    7.243211e+03
  3.427165e+01    7.184766e+03
  3.436319e+01    7.128836e+03
  3.445473e+01    7.075592e+03
  3.454628e+01    7.038233e+03
  3.463782e+01    6.988386e+03
  3.472936e+01    6.949229e+03
  3.482090e+01    6.909448e+03
  3.491244e+01    6.881412e+03
  3.500398e+01    6.839605e+03
  3.509552e+01    6.813711e+03
  3.518707e+01    6.793257e+03
  3.527861e+01    6.755354e+03
  3.537015e+01    6.711120e+03
  3.546169e+01    6.678092e+03
  3.555323e+01    6.647089e+03
  3.564477e+01    6.613750e+03
  3.573631e+01    6.599518e+03
  3.582786e+01    6.592578e+03
  3.591940e+01    6.596361e+03
  3.601094e+01    6.632354e+03
  3.610248e+01    6.705812e+03
  3.619402e+01    7.174265e+03
  3.628556e+01    1.054245e+04
  3.637710e+01    9.142686e+03
  3.646865e+01    6.968023e+03
  3.656019e+01    6.747208e+03
  3.665173e+01    6.707167e+03
  3.674327e+01    6.710961e+03
  3.683481e+01    6.740333e+03
  3.692635e+01    6.792649e+03
  3.701790e+01    6.864463e+03
  3.710944e+01    6.972529e+03
  3.720098e+01    7.208835e+03
  3.729252e+01    7.727072e+03
  3.738406e+01    9.784410e+03
  3.747560e+01    2.914442e+04
  3.756714e+01    6.041156e+04
  3.765869e+01    1.683569e+04
  3.775023e+01    8.696556e+03
  3.784177e+01    7.549685e+03
  3.793331e+01    7.195449e+03
  3.802485e+01    7.004493e+03
  3.811639e+01    6.912406e+03
  3.820793e+01    6.847743e+03
  3.829948e+01    6.825284e+03
  3.839102e+01    6.801792e+03
  3.848256e+01    6.808042e+03
  3.857410e+01    6.872271e+03
  3.866564e+01    7.440154e+03
  3.875718e+01    8.851980e+03
  3.884872e+01    7.208147e+03
  3.894027e+01    6.816346e+03
  3.903181e+01    6.743982e+03
  3.912335e+01    6.722585e+03
  3.921489e+01    6.693826e+03
  3.930643e+01    6.677391e+03
  3.939797e+01    6.659283e+03
  3.948951e+01    6.616433e+03
  3.958106e+01    6.594086e+03
  3.967260e+01    6.572704e+03
  3.976414e+01    6.565482e+03
  3.985568e+01    6.814858e+03
  3.994722e+01    6.978326e+03
  4.003876e+01    6.567073e+03
  4.013031e+01    6.502770e+03
  4.022185e+01    6.469003e+03
  4.031339e+01    6.455342e+03
  4.040493e+01    6.444188e+03
  4.049647e+01    6.430898e+03
  4.058801e+01    6.420962e+03
  4.067955e+01    6.431389e+03
  4.077110e+01    6.461882e+03
  4.086264e+01    6.583364e+03
  4.095418e+01    7.624398e+03
  4.104572e+01    1.231816e+04
  4.113726e+01    8.381555e+03
  4.122880e+01    6.629662e+03
  4.132034e+01    6.427776e+03
  4.141189e+01    6.368728e+03
  4.150343e+01    6.343730e+03
  4.159497e+01    6.334398e+03
  4.168651e+01    6.333158e+03
  4.177805e+01    6.302131e+03
  4.186959e+01    6.296792e+03
  4.196113e+01    6.313806e+03
  4.205268e+01    6.471382e+03
  4.214422e+01    7.445974e+03
  4.223576e+01    6.863776e+03
  4.232730e+01    6.340767e+03
  4.241884e+01    6.287280e+03
  4.251038e+01    6.275454e+03
  4.260192e+01    6.254121e+03
  4.269347e+01    6.261865e+03
  4.278501e+01    6.271446e+03
  4.287655e+01    6.286080e+03
  4.296809e+01    6.354902e+03
  4.305963e+01    6.452604e+03
  4.315117e+01    7.238140e+03
  4.324272e+01    1.123030e+04
  4.333426e+01    8.322471e+03
  4.342580e+01    6.853193e+03
  4.351734e+01    7.399336e+03
  4.360888e+01    1.573196e+04
  4.370042e+01    2.403893e+04
  4.379196e+01    8.887731e+03
  4.388351e+01    6.815026e+03
  4.397505e+01    6.570462e+03
  4.406659e+01    6.659246e+03
  4.415813e+01    7.407405e+03
  4.424967e+01    1.478784e+04
  4.434121e+01    2.610293e+04
  4.443275e+01    9.963445e+03
  4.452430e+01    6.891227e+03
  4.461584e+01    6.431199e+03
  4.470738e+01    6.265471e+03
  4.479892e+01    6.197106e+03
  4.489046e+01    6.156471e+03
  4.498200e+01    6.152578e+03
  4.507354e+01    6.168557e+03
  4.516509e+01    6.260840e+03
  4.525663e+01    7.024646e+03
  4.534817e+01    1.159706e+04
  4.543971e+01    8.720657e+03
  4.553125e+01    6.389991e+03
  4.562279e+01    6.102138e+03
  4.571433e+01    6.037732e+03
  4.580588e+01    5.987261e+03
  4.589742e+01    5.967282e+03
  4.598896e+01    5.940627e+03
  4.608050e+01    5.926087e+03
  4.617204e+01    5.942739e+03
  4.626358e+01    6.100691e+03
  4.635513e+01    7.332805e+03
  4.644667e+01    7.109207e+03
  4.653821e+01    6.088577e+03
  4.662975e+01    5.972635e+03
  4.672129e+01    5.948602e+03
  4.681283e+01    5.958884e+03
  4.690437e+01    5.984407e+03
  4.699592e+01    6.025706e+03
  4.708746e+01    6.084560e+03
  4.717900e+01    6.145468e+03
  4.727054e+01    6.316892e+03
  4.736208e+01    7.213820e+03
  4.745362e+01    7.209354e+03
  4.754516e+01    6.734936e+03
  4.763671e+01    6.845418e+03
  4.772825e+01    6.708658e+03
  4.781979e+01    6.382527e+03
  4.788844e+01    2.578328e+03