File: Output/ROCK_XRD/WAM39B_integrated/no_holder_xrd_000001_integrated.dat
# == pyFAI calibration ==
# Distance Sample to Detector: 0.261615 m
# PONI: 2.023e-01, 2.348e-01 m
# Rotations: -0.026380 0.002005 0.000000 rad
#
# == Fit2d calibration ==
# Distance Sample-beamCenter: 261.707 mm
# Center: x=6119.331, y=5134.776 pix
# Tilt: 1.516 deg  TiltPlanRot: 4.347 deg
#
# Detector Rayonix SX165	 PixelSize= 3.950e-05, 3.950e-05 m
#    Detector has a mask: True
#    Detector has a dark current: False
#    detector has a flat field: False
#
# Wavelength: 1.12713e-10 m
# Mask applied: from detector
# Dark current applied: False
# Flat field applied: False
# Polarization factor: None
# Normalization factor: 1.0
# --> ROCK\\WAM39B_integrated\no_holder_xrd_000001_integrated.dat
#       2th_deg             I
  2.502596e+01    3.164010e+03
  2.511750e+01    1.331553e+04
  2.520905e+01    1.427789e+04
  2.530059e+01    1.474892e+04
  2.539213e+01    1.465953e+04
  2.548367e+01    1.472236e+04
  2.557521e+01    1.472354e+04
  2.566675e+01    1.477147e+04
  2.575829e+01    1.469625e+04
  2.584984e+01    1.458690e+04
  2.594138e+01    1.458309e+04
  2.603292e+01    1.460342e+04
  2.612446e+01    1.458844e+04
  2.621600e+01    1.463292e+04
  2.630754e+01    1.466492e+04
  2.639908e+01    1.464979e+04
  2.649063e+01    1.446141e+04
  2.658217e+01    1.425596e+04
  2.667371e+01    1.413938e+04
  2.676525e+01    1.402235e+04
  2.685679e+01    1.388745e+04
  2.694833e+01    1.377110e+04
  2.703988e+01    1.364732e+04
  2.713142e+01    1.354767e+04
  2.722296e+01    1.341687e+04
  2.731450e+01    1.331710e+04
  2.740604e+01    1.319079e+04
  2.749758e+01    1.309755e+04
  2.758912e+01    1.302954e+04
  2.768067e+01    1.294630e+04
  2.777221e+01    1.284472e+04
  2.786375e+01    1.279886e+04
  2.795529e+01    1.273297e+04
  2.804683e+01    1.263576e+04
  2.813837e+01    1.255760e+04
  2.822991e+01    1.248588e+04
  2.832146e+01    1.243431e+04
  2.841300e+01    1.235786e+04
  2.850454e+01    1.229680e+04
  2.859608e+01    1.224045e+04
  2.868762e+01    1.214640e+04
  2.877916e+01    1.207092e+04
  2.887070e+01    1.198807e+04
  2.896225e+01    1.188536e+04
  2.905379e+01    1.178742e+04
  2.914533e+01    1.170966e+04
  2.923687e+01    1.164358e+04
  2.932841e+01    1.157196e+04
  2.941995e+01    1.150770e+04
  2.951149e+01    1.144872e+04
  2.960304e+01    1.140760e+04
  2.969458e+01    1.135261e+04
  2.978612e+01    1.130791e+04
  2.987766e+01    1.124931e+04
  2.996920e+01    1.120003e+04
  3.006074e+01    1.117082e+04
  3.015228e+01    1.113981e+04
  3.024383e+01    1.108338e+04
  3.033537e+01    1.105579e+04
  3.042691e+01    1.101856e+04
  3.051845e+01    1.097752e+04
  3.060999e+01    1.093515e+04
  3.070153e+01    1.089792e+04
  3.079308e+01    1.087138e+04
  3.088462e+01    1.081479e+04
  3.097616e+01    1.074959e+04
  3.106770e+01    1.070805e+04
  3.115924e+01    1.066631e+04
  3.125078e+01    1.061447e+04
  3.134232e+01    1.055588e+04
  3.143387e+01    1.052264e+04
  3.152541e+01    1.047490e+04
  3.161695e+01    1.042856e+04
  3.170849e+01    1.038076e+04
  3.180003e+01    1.033947e+04
  3.189157e+01    1.031270e+04
  3.198311e+01    1.028898e+04
  3.207466e+01    1.024961e+04
  3.216620e+01    1.022300e+04
  3.225774e+01    1.019625e+04
  3.234928e+01    1.016812e+04
  3.244082e+01    1.014542e+04
  3.253236e+01    1.011598e+04
  3.262390e+01    1.009127e+04
  3.271545e+01    1.003720e+04
  3.280699e+01    9.994411e+03
  3.289853e+01    9.941972e+03
  3.299007e+01    9.867648e+03
  3.308161e+01    9.801497e+03
  3.317315e+01    9.743915e+03
  3.326469e+01    9.684423e+03
  3.335624e+01    9.623813e+03
  3.344778e+01    9.572835e+03
  3.353932e+01    9.536242e+03
  3.363086e+01    9.482682e+03
  3.372240e+01    9.453961e+03
  3.381394e+01    9.414143e+03
  3.390549e+01    9.367240e+03
  3.399703e+01    9.328805e+03
  3.408857e+01    9.294220e+03
  3.418011e+01    9.267539e+03
  3.427165e+01    9.249941e+03
  3.436319e+01    9.248557e+03
  3.445473e+01    9.211579e+03
  3.454628e+01    9.198212e+03
  3.463782e+01    9.180038e+03
  3.472936e+01    9.166599e+03
  3.482090e+01    9.135224e+03
  3.491244e+01    9.123868e+03
  3.500398e+01    9.101688e+03
  3.509552e+01    9.068729e+03
  3.518707e+01    9.339843e+03
  3.527861e+01    8.966146e+03
  3.537015e+01    8.915296e+03
  3.546169e+01    8.836343e+03
  3.555323e+01    8.795389e+03
  3.564477e+01    8.739260e+03
  3.573631e+01    8.713957e+03
  3.582786e+01    8.662135e+03
  3.591940e+01    8.624882e+03
  3.601094e+01    8.598497e+03
  3.610248e+01    8.574578e+03
  3.619402e+01    8.564668e+03
  3.628556e+01    8.552202e+03
  3.637710e+01    8.541213e+03
  3.646865e+01    8.524282e+03
  3.656019e+01    8.518623e+03
  3.665173e+01    8.488903e+03
  3.674327e+01    8.482409e+03
  3.683481e+01    8.474883e+03
  3.692635e+01    8.468020e+03
  3.701790e+01    8.449131e+03
  3.710944e+01    8.442699e+03
  3.720098e+01    8.442182e+03
  3.729252e+01    8.420004e+03
  3.738406e+01    8.409035e+03
  3.747560e+01    8.390303e+03
  3.756714e+01    8.382741e+03
  3.765869e+01    8.368165e+03
  3.775023e+01    8.341021e+03
  3.784177e+01    8.333438e+03
  3.793331e+01    8.318680e+03
  3.802485e+01    8.278446e+03
  3.811639e+01    8.272365e+03
  3.820793e+01    8.237820e+03
  3.829948e+01    8.213359e+03
  3.839102e+01    8.191462e+03
  3.848256e+01    8.165146e+03
  3.857410e+01    8.146741e+03
  3.866564e+01    8.118389e+03
  3.875718e+01    8.091055e+03
  3.884872e+01    8.052380e+03
  3.894027e+01    8.029167e+03
  3.903181e+01    7.985800e+03
  3.912335e+01    7.933270e+03
  3.921489e+01    7.871266e+03
  3.930643e+01    7.815136e+03
  3.939797e+01    7.752253e+03
  3.948951e+01    7.674424e+03
  3.958106e+01    7.608718e+03
  3.967260e+01    7.537298e+03
  3.976414e+01    7.468171e+03
  3.985568e+01    7.407362e+03
  3.994722e+01    7.354300e+03
  4.003876e+01    7.289222e+03
  4.013031e+01    7.247406e+03
  4.022185e+01    7.198252e+03
  4.031339e+01    7.146765e+03
  4.040493e+01    7.095276e+03
  4.049647e+01    7.046067e+03
  4.058801e+01    6.994597e+03
  4.067955e+01    6.958873e+03
  4.077110e+01    6.917125e+03
  4.086264e+01    6.882242e+03
  4.095418e+01    6.850569e+03
  4.104572e+01    6.804166e+03
  4.113726e+01    6.770314e+03
  4.122880e+01    6.743804e+03
  4.132034e+01    6.704185e+03
  4.141189e+01    6.691348e+03
  4.150343e+01    6.666152e+03
  4.159497e+01    6.639636e+03
  4.168651e+01    6.628107e+03
  4.177805e+01    6.596645e+03
  4.186959e+01    6.559058e+03
  4.196113e+01    6.522584e+03
  4.205268e+01    6.504243e+03
  4.214422e+01    6.468032e+03
  4.223576e+01    6.436872e+03
  4.232730e+01    6.419124e+03
  4.241884e+01    6.390815e+03
  4.251038e+01    6.368343e+03
  4.260192e+01    6.331593e+03
  4.269347e+01    6.312266e+03
  4.278501e+01    6.282321e+03
  4.287655e+01    6.241138e+03
  4.296809e+01    6.211740e+03
  4.305963e+01    6.183874e+03
  4.315117e+01    6.162090e+03
  4.324272e+01    6.145764e+03
  4.333426e+01    6.117916e+03
  4.342580e+01    6.097159e+03
  4.351734e+01    6.061495e+03
  4.360888e+01    6.037298e+03
  4.370042e+01    6.009891e+03
  4.379196e+01    5.991967e+03
  4.388351e+01    5.969583e+03
  4.397505e+01    5.957698e+03
  4.406659e+01    5.930252e+03
  4.415813e+01    5.907392e+03
  4.424967e+01    5.894372e+03
  4.434121e+01    5.890209e+03
  4.443275e+01    5.865455e+03
  4.452430e+01    5.851400e+03
  4.461584e+01    5.846839e+03
  4.470738e+01    5.822624e+03
  4.479892e+01    5.817560e+03
  4.489046e+01    5.803792e+03
  4.498200e+01    5.789636e+03
  4.507354e+01    5.775047e+03
  4.516509e+01    5.754678e+03
  4.525663e+01    5.745442e+03
  4.534817e+01    5.722808e+03
  4.543971e+01    5.698322e+03
  4.553125e+01    5.676924e+03
  4.562279e+01    5.651271e+03
  4.571433e+01    5.645559e+03
  4.580588e+01    5.618729e+03
  4.589742e+01    5.604368e+03
  4.598896e+01    5.560146e+03
  4.608050e+01    5.527110e+03
  4.617204e+01    5.498514e+03
  4.626358e+01    5.500590e+03
  4.635513e+01    5.471963e+03
  4.644667e+01    5.445812e+03
  4.653821e+01    5.432866e+03
  4.662975e+01    5.403300e+03
  4.672129e+01    5.372237e+03
  4.681283e+01    5.364888e+03
  4.690437e+01    5.337402e+03
  4.699592e+01    5.325332e+03
  4.708746e+01    5.315956e+03
  4.717900e+01    5.296507e+03
  4.727054e+01    5.270452e+03
  4.736208e+01    5.254964e+03
  4.745362e+01    5.267343e+03
  4.754516e+01    5.309717e+03
  4.763671e+01    5.305627e+03
  4.772825e+01    5.174112e+03
  4.781979e+01    4.911419e+03
  4.788844e+01    1.989592e+03