File: Output/ROCK_XRD/WAM39B_integrated/uholder_toic_xrd_000001_integrated.dat
# == pyFAI calibration ==
# Distance Sample to Detector: 0.261615 m
# PONI: 2.023e-01, 2.348e-01 m
# Rotations: -0.026380 0.002005 0.000000 rad
#
# == Fit2d calibration ==
# Distance Sample-beamCenter: 261.707 mm
# Center: x=6119.331, y=5134.776 pix
# Tilt: 1.516 deg  TiltPlanRot: 4.347 deg
#
# Detector Rayonix SX165	 PixelSize= 3.950e-05, 3.950e-05 m
#    Detector has a mask: True
#    Detector has a dark current: False
#    detector has a flat field: False
#
# Wavelength: 1.12713e-10 m
# Mask applied: from detector
# Dark current applied: False
# Flat field applied: False
# Polarization factor: None
# Normalization factor: 1.0
# --> ROCK\\WAM39B_integrated\uholder_toic_xrd_000001_integrated.dat
#       2th_deg             I
  2.502596e+01    1.264233e+03
  2.511750e+01    5.232546e+03
  2.520905e+01    5.559117e+03
  2.530059e+01    5.726815e+03
  2.539213e+01    5.683476e+03
  2.548367e+01    5.712795e+03
  2.557521e+01    5.770869e+03
  2.566675e+01    5.931977e+03
  2.575829e+01    6.147961e+03
  2.584984e+01    6.274417e+03
  2.594138e+01    6.205997e+03
  2.603292e+01    6.044975e+03
  2.612446e+01    5.901963e+03
  2.621600e+01    5.827590e+03
  2.630754e+01    6.036752e+03
  2.639908e+01    7.545881e+03
  2.649063e+01    1.142017e+04
  2.658217e+01    1.123528e+04
  2.667371e+01    1.614333e+04
  2.676525e+01    9.955617e+03
  2.685679e+01    6.116437e+03
  2.694833e+01    5.358227e+03
  2.703988e+01    5.114255e+03
  2.713142e+01    5.006727e+03
  2.722296e+01    4.908990e+03
  2.731450e+01    4.847614e+03
  2.740604e+01    4.773303e+03
  2.749758e+01    4.739009e+03
  2.758912e+01    4.709289e+03
  2.768067e+01    4.695588e+03
  2.777221e+01    4.699339e+03
  2.786375e+01    4.763845e+03
  2.795529e+01    4.913405e+03
  2.804683e+01    5.659526e+03
  2.813837e+01    7.235624e+03
  2.822991e+01    5.741621e+03
  2.832146e+01    4.918654e+03
  2.841300e+01    4.613266e+03
  2.850454e+01    4.435863e+03
  2.859608e+01    4.328326e+03
  2.868762e+01    4.249805e+03
  2.877916e+01    4.202815e+03
  2.887070e+01    4.155538e+03
  2.896225e+01    4.134993e+03
  2.905379e+01    4.136766e+03
  2.914533e+01    4.165827e+03
  2.923687e+01    4.152960e+03
  2.932841e+01    4.079066e+03
  2.941995e+01    4.015812e+03
  2.951149e+01    4.000606e+03
  2.960304e+01    4.200688e+03
  2.969458e+01    4.771934e+03
  2.978612e+01    4.211301e+03
  2.987766e+01    3.957984e+03
  2.996920e+01    3.947348e+03
  3.006074e+01    3.926850e+03
  3.015228e+01    3.930668e+03
  3.024383e+01    3.939659e+03
  3.033537e+01    3.963545e+03
  3.042691e+01    4.022443e+03
  3.051845e+01    4.108143e+03
  3.060999e+01    4.323601e+03
  3.070153e+01    5.041700e+03
  3.079308e+01    8.236074e+03
  3.088462e+01    1.616494e+04
  3.097616e+01    1.353669e+04
  3.106770e+01    8.010104e+03
  3.115924e+01    1.154106e+04
  3.125078e+01    8.325427e+03
  3.134232e+01    4.618278e+03
  3.143387e+01    4.160282e+03
  3.152541e+01    4.030061e+03
  3.161695e+01    3.978745e+03
  3.170849e+01    3.950657e+03
  3.180003e+01    3.945339e+03
  3.189157e+01    3.944158e+03
  3.198311e+01    3.947645e+03
  3.207466e+01    3.966437e+03
  3.216620e+01    3.987754e+03
  3.225774e+01    4.010045e+03
  3.234928e+01    4.003688e+03
  3.244082e+01    4.021786e+03
  3.253236e+01    4.281643e+03
  3.262390e+01    4.698997e+03
  3.271545e+01    4.131040e+03
  3.280699e+01    4.017279e+03
  3.289853e+01    4.026631e+03
  3.299007e+01    4.002022e+03
  3.308161e+01    3.954662e+03
  3.317315e+01    3.916199e+03
  3.326469e+01    3.904857e+03
  3.335624e+01    3.897275e+03
  3.344778e+01    3.906448e+03
  3.353932e+01    3.915763e+03
  3.363086e+01    3.929583e+03
  3.372240e+01    3.987942e+03
  3.381394e+01    4.239094e+03
  3.390549e+01    6.354129e+03
  3.399703e+01    9.457282e+03
  3.408857e+01    5.023296e+03
  3.418011e+01    4.079756e+03
  3.427165e+01    3.947944e+03
  3.436319e+01    3.921058e+03
  3.445473e+01    3.915694e+03
  3.454628e+01    3.928211e+03
  3.463782e+01    3.951912e+03
  3.472936e+01    3.991532e+03
  3.482090e+01    4.087338e+03
  3.491244e+01    4.244531e+03
  3.500398e+01    4.426998e+03
  3.509552e+01    4.569488e+03
  3.518707e+01    4.633955e+03
  3.527861e+01    4.665780e+03
  3.537015e+01    4.695181e+03
  3.546169e+01    4.697602e+03
  3.555323e+01    4.727391e+03
  3.564477e+01    4.764518e+03
  3.573631e+01    4.807251e+03
  3.582786e+01    4.839545e+03
  3.591940e+01    4.885830e+03
  3.601094e+01    4.929666e+03
  3.610248e+01    4.977866e+03
  3.619402e+01    5.038158e+03
  3.628556e+01    5.104733e+03
  3.637710e+01    5.209200e+03
  3.646865e+01    5.579758e+03
  3.656019e+01    7.271085e+03
  3.665173e+01    6.482506e+03
  3.674327e+01    5.520488e+03
  3.683481e+01    5.493214e+03
  3.692635e+01    5.510685e+03
  3.701790e+01    5.530571e+03
  3.710944e+01    5.554836e+03
  3.720098e+01    5.596050e+03
  3.729252e+01    5.628116e+03
  3.738406e+01    5.699269e+03
  3.747560e+01    5.803905e+03
  3.756714e+01    6.073719e+03
  3.765869e+01    7.155266e+03
  3.775023e+01    1.637990e+04
  3.784177e+01    3.143805e+04
  3.793331e+01    1.102520e+04
  3.802485e+01    6.560226e+03
  3.811639e+01    5.983094e+03
  3.820793e+01    5.793438e+03
  3.829948e+01    5.701535e+03
  3.839102e+01    5.648686e+03
  3.848256e+01    5.633077e+03
  3.857410e+01    5.623134e+03
  3.866564e+01    5.612941e+03
  3.875718e+01    5.601459e+03
  3.884872e+01    5.607920e+03
  3.894027e+01    5.839209e+03
  3.903181e+01    6.557184e+03
  3.912335e+01    5.805739e+03
  3.921489e+01    5.475845e+03
  3.930643e+01    5.381647e+03
  3.939797e+01    5.325236e+03
  3.948951e+01    5.264933e+03
  3.958106e+01    5.218095e+03
  3.967260e+01    5.182074e+03
  3.976414e+01    5.116669e+03
  3.985568e+01    5.059935e+03
  3.994722e+01    5.001574e+03
  4.003876e+01    4.954616e+03
  4.013031e+01    5.003234e+03
  4.022185e+01    5.130720e+03
  4.031339e+01    4.886043e+03
  4.040493e+01    4.804723e+03
  4.049647e+01    4.754999e+03
  4.058801e+01    4.722138e+03
  4.067955e+01    4.696787e+03
  4.077110e+01    4.676918e+03
  4.086264e+01    4.651830e+03
  4.095418e+01    4.634250e+03
  4.104572e+01    4.624042e+03
  4.113726e+01    4.659076e+03
  4.122880e+01    4.904812e+03
  4.132034e+01    6.710202e+03
  4.141189e+01    6.471758e+03
  4.150343e+01    4.803762e+03
  4.159497e+01    4.632788e+03
  4.168651e+01    4.612418e+03
  4.177805e+01    4.585462e+03
  4.186959e+01    4.548396e+03
  4.196113e+01    4.513703e+03
  4.205268e+01    4.510067e+03
  4.214422e+01    4.511181e+03
  4.223576e+01    4.524640e+03
  4.232730e+01    4.557172e+03
  4.241884e+01    4.812716e+03
  4.251038e+01    4.971858e+03
  4.260192e+01    4.453033e+03
  4.269347e+01    4.348175e+03
  4.278501e+01    4.309663e+03
  4.287655e+01    4.283306e+03
  4.296809e+01    4.270227e+03
  4.305963e+01    4.249697e+03
  4.315117e+01    4.235774e+03
  4.324272e+01    4.253159e+03
  4.333426e+01    4.275244e+03
  4.342580e+01    4.393769e+03
  4.351734e+01    5.445992e+03
  4.360888e+01    6.276424e+03
  4.370042e+01    4.523984e+03
  4.379196e+01    4.285246e+03
  4.388351e+01    4.299695e+03
  4.397505e+01    4.394317e+03
  4.406659e+01    4.769223e+03
  4.415813e+01    6.342014e+03
  4.424967e+01    1.014658e+04
  4.434121e+01    7.250104e+03
  4.443275e+01    5.187039e+03
  4.452430e+01    5.564982e+03
  4.461584e+01    1.146719e+04
  4.470738e+01    1.067196e+04
  4.479892e+01    4.975287e+03
  4.489046e+01    4.313370e+03
  4.498200e+01    4.172827e+03
  4.507354e+01    4.108478e+03
  4.516509e+01    4.083572e+03
  4.525663e+01    4.059434e+03
  4.534817e+01    4.045993e+03
  4.543971e+01    4.053748e+03
  4.553125e+01    4.137274e+03
  4.562279e+01    4.858564e+03
  4.571433e+01    6.681064e+03
  4.580588e+01    4.701262e+03
  4.589742e+01    4.062717e+03
  4.598896e+01    3.972799e+03
  4.608050e+01    3.950442e+03
  4.617204e+01    3.943347e+03
  4.626358e+01    3.947436e+03
  4.635513e+01    3.910490e+03
  4.644667e+01    3.847341e+03
  4.653821e+01    3.827885e+03
  4.662975e+01    3.920078e+03
  4.672129e+01    4.469479e+03
  4.681283e+01    4.171250e+03
  4.690437e+01    3.837386e+03
  4.699592e+01    3.787407e+03
  4.708746e+01    3.770662e+03
  4.717900e+01    3.726555e+03
  4.727054e+01    3.686651e+03
  4.736208e+01    3.654794e+03
  4.745362e+01    3.661664e+03
  4.754516e+01    3.688093e+03
  4.763671e+01    3.767107e+03
  4.772825e+01    4.048251e+03
  4.781979e+01    3.678996e+03
  4.788844e+01    1.398576e+03