File: Output/ROCK_XRD/WAM39B_integrated/wam39b_rt_1_xrd_000001_integrated.dat
# == pyFAI calibration ==
# Distance Sample to Detector: 0.261615 m
# PONI: 2.023e-01, 2.348e-01 m
# Rotations: -0.026380 0.002005 0.000000 rad
#
# == Fit2d calibration ==
# Distance Sample-beamCenter: 261.707 mm
# Center: x=6119.331, y=5134.776 pix
# Tilt: 1.516 deg  TiltPlanRot: 4.347 deg
#
# Detector Rayonix SX165	 PixelSize= 3.950e-05, 3.950e-05 m
#    Detector has a mask: True
#    Detector has a dark current: False
#    detector has a flat field: False
#
# Wavelength: 1.12713e-10 m
# Mask applied: from detector
# Dark current applied: False
# Flat field applied: False
# Polarization factor: None
# Normalization factor: 1.0
# --> ROCK\\WAM39B_integrated\wam39b_rt_1_xrd_000001_integrated.dat
#       2th_deg             I
  2.502596e+01    6.123904e+03
  2.511750e+01    2.517884e+04
  2.520905e+01    2.565544e+04
  2.530059e+01    2.586027e+04
  2.539213e+01    2.533496e+04
  2.548367e+01    2.556467e+04
  2.557521e+01    2.613718e+04
  2.566675e+01    2.735298e+04
  2.575829e+01    2.844183e+04
  2.584984e+01    2.825307e+04
  2.594138e+01    2.719624e+04
  2.603292e+01    2.670030e+04
  2.612446e+01    2.684730e+04
  2.621600e+01    2.771625e+04
  2.630754e+01    2.927079e+04
  2.639908e+01    3.389124e+04
  2.649063e+01    4.167663e+04
  2.658217e+01    3.279355e+04
  2.667371e+01    2.893947e+04
  2.676525e+01    2.830182e+04
  2.685679e+01    2.788510e+04
  2.694833e+01    2.700411e+04
  2.703988e+01    2.564118e+04
  2.713142e+01    2.421309e+04
  2.722296e+01    2.301819e+04
  2.731450e+01    2.219960e+04
  2.740604e+01    2.161756e+04
  2.749758e+01    2.128108e+04
  2.758912e+01    2.108919e+04
  2.768067e+01    2.098583e+04
  2.777221e+01    2.102826e+04
  2.786375e+01    2.144192e+04
  2.795529e+01    2.240921e+04
  2.804683e+01    2.526959e+04
  2.813837e+01    2.886351e+04
  2.822991e+01    2.364010e+04
  2.832146e+01    2.077671e+04
  2.841300e+01    1.940186e+04
  2.850454e+01    1.863925e+04
  2.859608e+01    1.812156e+04
  2.868762e+01    1.767464e+04
  2.877916e+01    1.733153e+04
  2.887070e+01    1.704472e+04
  2.896225e+01    1.673636e+04
  2.905379e+01    1.645389e+04
  2.914533e+01    1.621986e+04
  2.923687e+01    1.603589e+04
  2.932841e+01    1.584882e+04
  2.941995e+01    1.567644e+04
  2.951149e+01    1.563927e+04
  2.960304e+01    1.633012e+04
  2.969458e+01    1.765951e+04
  2.978612e+01    1.582850e+04
  2.987766e+01    1.503785e+04
  2.996920e+01    1.485901e+04
  3.006074e+01    1.479471e+04
  3.015228e+01    1.476313e+04
  3.024383e+01    1.477733e+04
  3.033537e+01    1.486198e+04
  3.042691e+01    1.501324e+04
  3.051845e+01    1.525589e+04
  3.060999e+01    1.563748e+04
  3.070153e+01    1.624485e+04
  3.079308e+01    1.718218e+04
  3.088462e+01    1.859318e+04
  3.097616e+01    2.082090e+04
  3.106770e+01    2.688854e+04
  3.115924e+01    4.334508e+04
  3.125078e+01    3.109185e+04
  3.134232e+01    2.052969e+04
  3.143387e+01    1.753924e+04
  3.152541e+01    1.600989e+04
  3.161695e+01    1.509927e+04
  3.170849e+01    1.452916e+04
  3.180003e+01    1.413446e+04
  3.189157e+01    1.383344e+04
  3.198311e+01    1.360506e+04
  3.207466e+01    1.341201e+04
  3.216620e+01    1.324812e+04
  3.225774e+01    1.308507e+04
  3.234928e+01    1.297501e+04
  3.244082e+01    1.299619e+04
  3.253236e+01    1.389253e+04
  3.262390e+01    1.459358e+04
  3.271545e+01    1.284109e+04
  3.280699e+01    1.232946e+04
  3.289853e+01    1.215772e+04
  3.299007e+01    1.203721e+04
  3.308161e+01    1.195957e+04
  3.317315e+01    1.189826e+04
  3.326469e+01    1.185011e+04
  3.335624e+01    1.182248e+04
  3.344778e+01    1.180902e+04
  3.353932e+01    1.180033e+04
  3.363086e+01    1.188503e+04
  3.372240e+01    1.218988e+04
  3.381394e+01    1.356569e+04
  3.390549e+01    2.192412e+04
  3.399703e+01    2.752130e+04
  3.408857e+01    1.530122e+04
  3.418011e+01    1.241917e+04
  3.427165e+01    1.185683e+04
  3.436319e+01    1.163468e+04
  3.445473e+01    1.145756e+04
  3.454628e+01    1.129055e+04
  3.463782e+01    1.117593e+04
  3.472936e+01    1.108897e+04
  3.482090e+01    1.104782e+04
  3.491244e+01    1.109018e+04
  3.500398e+01    1.121330e+04
  3.509552e+01    1.134107e+04
  3.518707e+01    1.132455e+04
  3.527861e+01    1.108582e+04
  3.537015e+01    1.085603e+04
  3.546169e+01    1.066488e+04
  3.555323e+01    1.052924e+04
  3.564477e+01    1.042223e+04
  3.573631e+01    1.036758e+04
  3.582786e+01    1.031353e+04
  3.591940e+01    1.028621e+04
  3.601094e+01    1.028973e+04
  3.610248e+01    1.030087e+04
  3.619402e+01    1.033357e+04
  3.628556e+01    1.043155e+04
  3.637710e+01    1.072093e+04
  3.646865e+01    1.234039e+04
  3.656019e+01    1.727004e+04
  3.665173e+01    1.348007e+04
  3.674327e+01    1.097157e+04
  3.683481e+01    1.058906e+04
  3.692635e+01    1.052066e+04
  3.701790e+01    1.053527e+04
  3.710944e+01    1.059461e+04
  3.720098e+01    1.073712e+04
  3.729252e+01    1.094464e+04
  3.738406e+01    1.125007e+04
  3.747560e+01    1.189428e+04
  3.756714e+01    1.356102e+04
  3.765869e+01    2.008477e+04
  3.775023e+01    5.997956e+04
  3.784177e+01    8.539475e+04
  3.793331e+01    2.840296e+04
  3.802485e+01    1.499328e+04
  3.811639e+01    1.240187e+04
  3.820793e+01    1.147057e+04
  3.829948e+01    1.108161e+04
  3.839102e+01    1.087089e+04
  3.848256e+01    1.077634e+04
  3.857410e+01    1.070320e+04
  3.866564e+01    1.063267e+04
  3.875718e+01    1.061158e+04
  3.884872e+01    1.073310e+04
  3.894027e+01    1.186998e+04
  3.903181e+01    1.364248e+04
  3.912335e+01    1.132179e+04
  3.921489e+01    1.052577e+04
  3.930643e+01    1.035594e+04
  3.939797e+01    1.030286e+04
  3.948951e+01    1.026250e+04
  3.958106e+01    1.021674e+04
  3.967260e+01    1.019721e+04
  3.976414e+01    1.016323e+04
  3.985568e+01    1.017381e+04
  3.994722e+01    1.019480e+04
  4.003876e+01    1.023223e+04
  4.013031e+01    1.066259e+04
  4.022185e+01    1.101581e+04
  4.031339e+01    1.049959e+04
  4.040493e+01    1.047961e+04
  4.049647e+01    1.057713e+04
  4.058801e+01    1.058643e+04
  4.067955e+01    1.046314e+04
  4.077110e+01    1.029613e+04
  4.086264e+01    1.017227e+04
  4.095418e+01    1.011683e+04
  4.104572e+01    1.016400e+04
  4.113726e+01    1.044021e+04
  4.122880e+01    1.202385e+04
  4.132034e+01    1.841489e+04
  4.141189e+01    1.510432e+04
  4.150343e+01    1.103535e+04
  4.159497e+01    1.043990e+04
  4.168651e+01    1.037985e+04
  4.177805e+01    1.032375e+04
  4.186959e+01    1.024223e+04
  4.196113e+01    1.017216e+04
  4.205268e+01    1.015051e+04
  4.214422e+01    1.013384e+04
  4.223576e+01    1.016663e+04
  4.232730e+01    1.037158e+04
  4.241884e+01    1.156903e+04
  4.251038e+01    1.151553e+04
  4.260192e+01    1.017875e+04
  4.269347e+01    9.878992e+03
  4.278501e+01    9.753594e+03
  4.287655e+01    9.683703e+03
  4.296809e+01    9.660281e+03
  4.305963e+01    9.636483e+03
  4.315117e+01    9.672632e+03
  4.324272e+01    9.757620e+03
  4.333426e+01    9.982562e+03
  4.342580e+01    1.089633e+04
  4.351734e+01    1.565561e+04
  4.360888e+01    1.567888e+04
  4.370042e+01    1.115755e+04
  4.379196e+01    1.047929e+04
  4.388351e+01    1.059018e+04
  4.397505e+01    1.082531e+04
  4.406659e+01    1.100721e+04
  4.415813e+01    1.123605e+04
  4.424967e+01    1.174812e+04
  4.434121e+01    1.255690e+04
  4.443275e+01    1.414835e+04
  4.452430e+01    2.033235e+04
  4.461584e+01    4.257571e+04
  4.470738e+01    2.969342e+04
  4.479892e+01    1.541634e+04
  4.489046e+01    1.252969e+04
  4.498200e+01    1.147038e+04
  4.507354e+01    1.084426e+04
  4.516509e+01    1.046307e+04
  4.525663e+01    1.021868e+04
  4.534817e+01    1.011538e+04
  4.543971e+01    1.020487e+04
  4.553125e+01    1.086001e+04
  4.562279e+01    1.488438e+04
  4.571433e+01    1.842597e+04
  4.580588e+01    1.205294e+04
  4.589742e+01    1.029519e+04
  4.598896e+01    9.931217e+03
  4.608050e+01    9.800192e+03
  4.617204e+01    9.737141e+03
  4.626358e+01    9.707342e+03
  4.635513e+01    9.683671e+03
  4.644667e+01    9.673529e+03
  4.653821e+01    9.777973e+03
  4.662975e+01    1.049996e+04
  4.672129e+01    1.230868e+04
  4.681283e+01    1.075925e+04
  4.690437e+01    9.976415e+03
  4.699592e+01    9.923776e+03
  4.708746e+01    9.983749e+03
  4.717900e+01    9.920596e+03
  4.727054e+01    9.860774e+03
  4.736208e+01    9.824259e+03
  4.745362e+01    9.956715e+03
  4.754516e+01    1.032017e+04
  4.763671e+01    1.110972e+04
  4.772825e+01    1.215844e+04
  4.781979e+01    1.058129e+04
  4.788844e+01    4.056505e+03