File: Output/ROCK_XRD/WAM39B_integrated/wam39b_fin_palier_zn_4_xrd_000001_integrated.dat
# == pyFAI calibration ==
# Distance Sample to Detector: 0.261615 m
# PONI: 2.023e-01, 2.348e-01 m
# Rotations: -0.026380 0.002005 0.000000 rad
#
# == Fit2d calibration ==
# Distance Sample-beamCenter: 261.707 mm
# Center: x=6119.331, y=5134.776 pix
# Tilt: 1.516 deg  TiltPlanRot: 4.347 deg
#
# Detector Rayonix SX165	 PixelSize= 3.950e-05, 3.950e-05 m
#    Detector has a mask: True
#    Detector has a dark current: False
#    detector has a flat field: False
#
# Wavelength: 1.12713e-10 m
# Mask applied: from detector
# Dark current applied: False
# Flat field applied: False
# Polarization factor: None
# Normalization factor: 1.0
# --> ROCK\\WAM39B_integrated\wam39b_fin_palier_zn_4_xrd_000001_integrated.dat
#       2th_deg             I
  2.502596e+01    4.202184e+03
  2.511750e+01    1.729175e+04
  2.520905e+01    1.758634e+04
  2.530059e+01    1.765823e+04
  2.539213e+01    1.724424e+04
  2.548367e+01    1.735481e+04
  2.557521e+01    1.775408e+04
  2.566675e+01    1.812458e+04
  2.575829e+01    1.807177e+04
  2.584984e+01    1.756823e+04
  2.594138e+01    1.715638e+04
  2.603292e+01    1.697227e+04
  2.612446e+01    1.725719e+04
  2.621600e+01    1.928524e+04
  2.630754e+01    2.944246e+04
  2.639908e+01    4.231329e+04
  2.649063e+01    3.353441e+04
  2.658217e+01    1.967534e+04
  2.667371e+01    1.647364e+04
  2.676525e+01    1.554793e+04
  2.685679e+01    1.512894e+04
  2.694833e+01    1.484198e+04
  2.703988e+01    1.462838e+04
  2.713142e+01    1.447082e+04
  2.722296e+01    1.429182e+04
  2.731450e+01    1.415321e+04
  2.740604e+01    1.400627e+04
  2.749758e+01    1.394990e+04
  2.758912e+01    1.396210e+04
  2.768067e+01    1.406117e+04
  2.777221e+01    1.432704e+04
  2.786375e+01    1.532163e+04
  2.795529e+01    1.889438e+04
  2.804683e+01    1.644060e+04
  2.813837e+01    1.400602e+04
  2.822991e+01    1.326238e+04
  2.832146e+01    1.286107e+04
  2.841300e+01    1.256160e+04
  2.850454e+01    1.236526e+04
  2.859608e+01    1.218571e+04
  2.868762e+01    1.202739e+04
  2.877916e+01    1.191811e+04
  2.887070e+01    1.187061e+04
  2.896225e+01    1.178504e+04
  2.905379e+01    1.154414e+04
  2.914533e+01    1.128800e+04
  2.923687e+01    1.109048e+04
  2.932841e+01    1.096081e+04
  2.941995e+01    1.108549e+04
  2.951149e+01    1.228336e+04
  2.960304e+01    1.114922e+04
  2.969458e+01    1.039434e+04
  2.978612e+01    1.020223e+04
  2.987766e+01    1.007479e+04
  2.996920e+01    1.001599e+04
  3.006074e+01    1.000582e+04
  3.015228e+01    1.002431e+04
  3.024383e+01    1.008331e+04
  3.033537e+01    1.036848e+04
  3.042691e+01    1.147920e+04
  3.051845e+01    1.797480e+04
  3.060999e+01    4.130295e+04
  3.070153e+01    2.785335e+04
  3.079308e+01    1.412670e+04
  3.088462e+01    1.303885e+04
  3.097616e+01    2.443817e+04
  3.106770e+01    1.828349e+04
  3.115924e+01    1.054081e+04
  3.125078e+01    9.493577e+03
  3.134232e+01    9.185924e+03
  3.143387e+01    9.033555e+03
  3.152541e+01    8.920282e+03
  3.161695e+01    8.831080e+03
  3.170849e+01    8.766267e+03
  3.180003e+01    8.705161e+03
  3.189157e+01    8.678843e+03
  3.198311e+01    8.666293e+03
  3.207466e+01    8.639190e+03
  3.216620e+01    8.574303e+03
  3.225774e+01    8.535910e+03
  3.234928e+01    9.021685e+03
  3.244082e+01    9.802517e+03
  3.253236e+01    8.598021e+03
  3.262390e+01    8.365856e+03
  3.271545e+01    8.320617e+03
  3.280699e+01    8.199942e+03
  3.289853e+01    8.078179e+03
  3.299007e+01    7.995215e+03
  3.308161e+01    7.943752e+03
  3.317315e+01    7.901973e+03
  3.326469e+01    7.878677e+03
  3.335624e+01    7.863211e+03
  3.344778e+01    7.866801e+03
  3.353932e+01    7.956942e+03
  3.363086e+01    8.530211e+03
  3.372240e+01    1.406479e+04
  3.381394e+01    1.830840e+04
  3.390549e+01    9.284496e+03
  3.399703e+01    7.871367e+03
  3.408857e+01    7.594443e+03
  3.418011e+01    7.479391e+03
  3.427165e+01    7.435317e+03
  3.436319e+01    7.392245e+03
  3.445473e+01    7.363545e+03
  3.454628e+01    7.330324e+03
  3.463782e+01    7.327706e+03
  3.472936e+01    7.342480e+03
  3.482090e+01    7.358947e+03
  3.491244e+01    7.334425e+03
  3.500398e+01    7.240361e+03
  3.509552e+01    7.126238e+03
  3.518707e+01    7.048392e+03
  3.527861e+01    6.985789e+03
  3.537015e+01    6.913222e+03
  3.546169e+01    6.867547e+03
  3.555323e+01    6.833690e+03
  3.564477e+01    6.805846e+03
  3.573631e+01    6.778904e+03
  3.582786e+01    6.773693e+03
  3.591940e+01    6.774423e+03
  3.601094e+01    6.800075e+03
  3.610248e+01    6.838352e+03
  3.619402e+01    6.985081e+03
  3.628556e+01    8.229536e+03
  3.637710e+01    1.171087e+04
  3.646865e+01    8.002232e+03
  3.656019e+01    7.027897e+03
  3.665173e+01    6.907500e+03
  3.674327e+01    6.901548e+03
  3.683481e+01    6.923734e+03
  3.692635e+01    6.953507e+03
  3.701790e+01    6.995631e+03
  3.710944e+01    7.089555e+03
  3.720098e+01    7.239205e+03
  3.729252e+01    7.540304e+03
  3.738406e+01    8.369981e+03
  3.747560e+01    1.294250e+04
  3.756714e+01    5.203528e+04
  3.765869e+01    4.458218e+04
  3.775023e+01    1.200577e+04
  3.784177e+01    8.338328e+03
  3.793331e+01    7.596653e+03
  3.802485e+01    7.290638e+03
  3.811639e+01    7.163107e+03
  3.820793e+01    7.076849e+03
  3.829948e+01    7.047262e+03
  3.839102e+01    7.030930e+03
  3.848256e+01    7.030170e+03
  3.857410e+01    7.043201e+03
  3.866564e+01    7.157844e+03
  3.875718e+01    8.427068e+03
  3.884872e+01    8.636358e+03
  3.894027e+01    7.164093e+03
  3.903181e+01    6.965771e+03
  3.912335e+01    6.914255e+03
  3.921489e+01    6.894427e+03
  3.930643e+01    6.870642e+03
  3.939797e+01    6.880327e+03
  3.948951e+01    6.855753e+03
  3.958106e+01    6.833474e+03
  3.967260e+01    6.785109e+03
  3.976414e+01    6.728633e+03
  3.985568e+01    6.766449e+03
  3.994722e+01    7.189310e+03
  4.003876e+01    6.965110e+03
  4.013031e+01    6.686673e+03
  4.022185e+01    6.635068e+03
  4.031339e+01    6.618123e+03
  4.040493e+01    6.601235e+03
  4.049647e+01    6.590501e+03
  4.058801e+01    6.585988e+03
  4.067955e+01    6.576725e+03
  4.077110e+01    6.608102e+03
  4.086264e+01    6.660997e+03
  4.095418e+01    6.899620e+03
  4.104572e+01    9.187123e+03
  4.113726e+01    1.250428e+04
  4.122880e+01    7.706282e+03
  4.132034e+01    6.845128e+03
  4.141189e+01    6.701363e+03
  4.150343e+01    6.634573e+03
  4.159497e+01    6.597346e+03
  4.168651e+01    6.577404e+03
  4.177805e+01    6.575105e+03
  4.186959e+01    6.605720e+03
  4.196113e+01    6.659499e+03
  4.205268e+01    6.727505e+03
  4.214422e+01    7.008982e+03
  4.223576e+01    7.908594e+03
  4.232730e+01    6.819327e+03
  4.241884e+01    6.490296e+03
  4.251038e+01    6.435083e+03
  4.260192e+01    6.407326e+03
  4.269347e+01    6.404234e+03
  4.278501e+01    6.394635e+03
  4.287655e+01    6.392042e+03
  4.296809e+01    6.431875e+03
  4.305963e+01    6.494862e+03
  4.315117e+01    6.664787e+03
  4.324272e+01    8.240158e+03
  4.333426e+01    1.164727e+04
  4.342580e+01    7.652736e+03
  4.351734e+01    6.832182e+03
  4.360888e+01    7.033594e+03
  4.370042e+01    8.564692e+03
  4.379196e+01    1.734893e+04
  4.388351e+01    1.839158e+04
  4.397505e+01    9.617664e+03
  4.406659e+01    7.459791e+03
  4.415813e+01    7.235352e+03
  4.424967e+01    8.454532e+03
  4.434121e+01    2.095604e+04
  4.443275e+01    2.329820e+04
  4.452430e+01    8.785709e+03
  4.461584e+01    6.901708e+03
  4.470738e+01    6.515966e+03
  4.479892e+01    6.389735e+03
  4.489046e+01    6.317412e+03
  4.498200e+01    6.307724e+03
  4.507354e+01    6.302037e+03
  4.516509e+01    6.327828e+03
  4.525663e+01    6.499579e+03
  4.534817e+01    7.898353e+03
  4.543971e+01    1.250036e+04
  4.553125e+01    7.998344e+03
  4.562279e+01    6.477877e+03
  4.571433e+01    6.323078e+03
  4.580588e+01    6.293677e+03
  4.589742e+01    6.300163e+03
  4.598896e+01    6.314073e+03
  4.608050e+01    6.243472e+03
  4.617204e+01    6.181486e+03
  4.626358e+01    6.183604e+03
  4.635513e+01    6.421002e+03
  4.644667e+01    7.966406e+03
  4.653821e+01    7.084786e+03
  4.662975e+01    6.367615e+03
  4.672129e+01    6.300523e+03
  4.681283e+01    6.283977e+03
  4.690437e+01    6.248126e+03
  4.699592e+01    6.250277e+03
  4.708746e+01    6.286024e+03
  4.717900e+01    6.320474e+03
  4.727054e+01    6.425883e+03
  4.736208e+01    6.655478e+03
  4.745362e+01    7.810958e+03
  4.754516e+01    7.434478e+03
  4.763671e+01    7.117054e+03
  4.772825e+01    6.928146e+03
  4.781979e+01    6.566108e+03
  4.788844e+01    2.646646e+03