File: Output/ROCK_XRD/WAM39B_integrated/wam39b_fin_palier_1_xrd_000001_integrated.dat
# == pyFAI calibration ==
# Distance Sample to Detector: 0.261615 m
# PONI: 2.023e-01, 2.348e-01 m
# Rotations: -0.026380 0.002005 0.000000 rad
#
# == Fit2d calibration ==
# Distance Sample-beamCenter: 261.707 mm
# Center: x=6119.331, y=5134.776 pix
# Tilt: 1.516 deg  TiltPlanRot: 4.347 deg
#
# Detector Rayonix SX165	 PixelSize= 3.950e-05, 3.950e-05 m
#    Detector has a mask: True
#    Detector has a dark current: False
#    detector has a flat field: False
#
# Wavelength: 1.12713e-10 m
# Mask applied: from detector
# Dark current applied: False
# Flat field applied: False
# Polarization factor: None
# Normalization factor: 1.0
# --> ROCK\\WAM39B_integrated\wam39b_fin_palier_1_xrd_000001_integrated.dat
#       2th_deg             I
  2.502596e+01    4.794013e+03
  2.511750e+01    1.973443e+04
  2.520905e+01    1.998357e+04
  2.530059e+01    2.011127e+04
  2.539213e+01    1.952865e+04
  2.548367e+01    1.941196e+04
  2.557521e+01    1.927200e+04
  2.566675e+01    1.919504e+04
  2.575829e+01    1.897714e+04
  2.584984e+01    1.881081e+04
  2.594138e+01    1.890761e+04
  2.603292e+01    1.940865e+04
  2.612446e+01    2.120334e+04
  2.621600e+01    3.160940e+04
  2.630754e+01    6.450467e+04
  2.639908e+01    3.286069e+04
  2.649063e+01    2.069084e+04
  2.658217e+01    1.849423e+04
  2.667371e+01    1.775040e+04
  2.676525e+01    1.736423e+04
  2.685679e+01    1.707501e+04
  2.694833e+01    1.682773e+04
  2.703988e+01    1.663345e+04
  2.713142e+01    1.645564e+04
  2.722296e+01    1.624149e+04
  2.731450e+01    1.608480e+04
  2.740604e+01    1.589598e+04
  2.749758e+01    1.577230e+04
  2.758912e+01    1.567842e+04
  2.768067e+01    1.561301e+04
  2.777221e+01    1.576430e+04
  2.786375e+01    1.766927e+04
  2.795529e+01    2.000791e+04
  2.804683e+01    1.594793e+04
  2.813837e+01    1.496838e+04
  2.822991e+01    1.458794e+04
  2.832146e+01    1.437235e+04
  2.841300e+01    1.417583e+04
  2.850454e+01    1.400485e+04
  2.859608e+01    1.382211e+04
  2.868762e+01    1.362296e+04
  2.877916e+01    1.343834e+04
  2.887070e+01    1.324398e+04
  2.896225e+01    1.306273e+04
  2.905379e+01    1.284488e+04
  2.914533e+01    1.268977e+04
  2.923687e+01    1.255796e+04
  2.932841e+01    1.250350e+04
  2.941995e+01    1.323311e+04
  2.951149e+01    1.367196e+04
  2.960304e+01    1.215378e+04
  2.969458e+01    1.179217e+04
  2.978612e+01    1.162796e+04
  2.987766e+01    1.152286e+04
  2.996920e+01    1.148263e+04
  3.006074e+01    1.153341e+04
  3.015228e+01    1.166500e+04
  3.024383e+01    1.218419e+04
  3.033537e+01    1.505481e+04
  3.042691e+01    3.995811e+04
  3.051845e+01    5.670521e+04
  3.060999e+01    1.752213e+04
  3.070153e+01    1.260845e+04
  3.079308e+01    1.251691e+04
  3.088462e+01    1.909371e+04
  3.097616e+01    2.820964e+04
  3.106770e+01    1.393199e+04
  3.115924e+01    1.111118e+04
  3.125078e+01    1.057719e+04
  3.134232e+01    1.035129e+04
  3.143387e+01    1.021856e+04
  3.152541e+01    1.011206e+04
  3.161695e+01    1.000148e+04
  3.170849e+01    9.923227e+03
  3.180003e+01    9.848615e+03
  3.189157e+01    9.781300e+03
  3.198311e+01    9.713158e+03
  3.207466e+01    9.657717e+03
  3.216620e+01    9.636532e+03
  3.225774e+01    9.803111e+03
  3.234928e+01    1.102595e+04
  3.244082e+01    1.014321e+04
  3.253236e+01    9.447935e+03
  3.262390e+01    9.316140e+03
  3.271545e+01    9.234526e+03
  3.280699e+01    9.166769e+03
  3.289853e+01    9.125509e+03
  3.299007e+01    9.059348e+03
  3.308161e+01    9.006333e+03
  3.317315e+01    8.976801e+03
  3.326469e+01    8.940780e+03
  3.335624e+01    8.942058e+03
  3.344778e+01    8.994023e+03
  3.353932e+01    9.275294e+03
  3.363086e+01    1.175491e+04
  3.372240e+01    2.219044e+04
  3.381394e+01    1.311802e+04
  3.390549e+01    9.263792e+03
  3.399703e+01    8.735471e+03
  3.408857e+01    8.552562e+03
  3.418011e+01    8.453509e+03
  3.427165e+01    8.389772e+03
  3.436319e+01    8.329638e+03
  3.445473e+01    8.270728e+03
  3.454628e+01    8.216787e+03
  3.463782e+01    8.163233e+03
  3.472936e+01    8.118487e+03
  3.482090e+01    8.081120e+03
  3.491244e+01    8.031814e+03
  3.500398e+01    7.999248e+03
  3.509552e+01    7.962413e+03
  3.518707e+01    7.929321e+03
  3.527861e+01    7.885817e+03
  3.537015e+01    7.846734e+03
  3.546169e+01    7.805472e+03
  3.555323e+01    7.766792e+03
  3.564477e+01    7.727550e+03
  3.573631e+01    7.716988e+03
  3.582786e+01    7.699564e+03
  3.591940e+01    7.713846e+03
  3.601094e+01    7.750769e+03
  3.610248e+01    7.846054e+03
  3.619402e+01    8.439930e+03
  3.628556e+01    1.235986e+04
  3.637710e+01    1.044089e+04
  3.646865e+01    8.119314e+03
  3.656019e+01    7.897688e+03
  3.665173e+01    7.842182e+03
  3.674327e+01    7.852180e+03
  3.683481e+01    7.889613e+03
  3.692635e+01    7.955621e+03
  3.701790e+01    8.038827e+03
  3.710944e+01    8.178429e+03
  3.720098e+01    8.448442e+03
  3.729252e+01    9.079621e+03
  3.738406e+01    1.164444e+04
  3.747560e+01    3.558872e+04
  3.756714e+01    6.771941e+04
  3.765869e+01    1.875102e+04
  3.775023e+01    1.009965e+04
  3.784177e+01    8.814891e+03
  3.793331e+01    8.409688e+03
  3.802485e+01    8.188702e+03
  3.811639e+01    8.099909e+03
  3.820793e+01    8.019932e+03
  3.829948e+01    7.993544e+03
  3.839102e+01    7.963492e+03
  3.848256e+01    7.966131e+03
  3.857410e+01    8.055727e+03
  3.866564e+01    8.768985e+03
  3.875718e+01    1.025999e+04
  3.884872e+01    8.382345e+03
  3.894027e+01    7.966254e+03
  3.903181e+01    7.900669e+03
  3.912335e+01    7.862083e+03
  3.921489e+01    7.842856e+03
  3.930643e+01    7.824312e+03
  3.939797e+01    7.797525e+03
  3.948951e+01    7.756450e+03
  3.958106e+01    7.732657e+03
  3.967260e+01    7.698126e+03
  3.976414e+01    7.700840e+03
  3.985568e+01    8.007780e+03
  3.994722e+01    8.136634e+03
  4.003876e+01    7.682688e+03
  4.013031e+01    7.615908e+03
  4.022185e+01    7.582645e+03
  4.031339e+01    7.566845e+03
  4.040493e+01    7.546188e+03
  4.049647e+01    7.528117e+03
  4.058801e+01    7.522439e+03
  4.067955e+01    7.529381e+03
  4.077110e+01    7.562791e+03
  4.086264e+01    7.729743e+03
  4.095418e+01    9.042244e+03
  4.104572e+01    1.424946e+04
  4.113726e+01    9.552769e+03
  4.122880e+01    7.740535e+03
  4.132034e+01    7.514871e+03
  4.141189e+01    7.456250e+03
  4.150343e+01    7.423412e+03
  4.159497e+01    7.413000e+03
  4.168651e+01    7.416000e+03
  4.177805e+01    7.389307e+03
  4.186959e+01    7.391256e+03
  4.196113e+01    7.402480e+03
  4.205268e+01    7.591839e+03
  4.214422e+01    8.703646e+03
  4.223576e+01    7.965054e+03
  4.232730e+01    7.426971e+03
  4.241884e+01    7.368184e+03
  4.251038e+01    7.346429e+03
  4.260192e+01    7.343445e+03
  4.269347e+01    7.338890e+03
  4.278501e+01    7.343738e+03
  4.287655e+01    7.374422e+03
  4.296809e+01    7.450576e+03
  4.305963e+01    7.583645e+03
  4.315117e+01    8.587552e+03
  4.324272e+01    1.306771e+04
  4.333426e+01    9.582625e+03
  4.342580e+01    8.255305e+03
  4.351734e+01    1.062383e+04
  4.360888e+01    2.883360e+04
  4.370042e+01    1.697888e+04
  4.379196e+01    8.539062e+03
  4.388351e+01    7.727573e+03
  4.397505e+01    7.635046e+03
  4.406659e+01    7.798761e+03
  4.415813e+01    8.750158e+03
  4.424967e+01    1.802532e+04
  4.434121e+01    2.929596e+04
  4.443275e+01    1.121530e+04
  4.452430e+01    8.027688e+03
  4.461584e+01    7.527116e+03
  4.470738e+01    7.334908e+03
  4.479892e+01    7.258529e+03
  4.489046e+01    7.212054e+03
  4.498200e+01    7.208771e+03
  4.507354e+01    7.233520e+03
  4.516509e+01    7.360265e+03
  4.525663e+01    8.313176e+03
  4.534817e+01    1.351483e+04
  4.543971e+01    9.858719e+03
  4.553125e+01    7.445792e+03
  4.562279e+01    7.140083e+03
  4.571433e+01    7.071948e+03
  4.580588e+01    7.016489e+03
  4.589742e+01    6.990433e+03
  4.598896e+01    6.966498e+03
  4.608050e+01    6.939996e+03
  4.617204e+01    6.956336e+03
  4.626358e+01    7.156476e+03
  4.635513e+01    8.628029e+03
  4.644667e+01    8.200759e+03
  4.653821e+01    7.111660e+03
  4.662975e+01    6.987060e+03
  4.672129e+01    6.960372e+03
  4.681283e+01    6.989868e+03
  4.690437e+01    7.009370e+03
  4.699592e+01    7.052675e+03
  4.708746e+01    7.132855e+03
  4.717900e+01    7.208660e+03
  4.727054e+01    7.409997e+03
  4.736208e+01    8.464596e+03
  4.745362e+01    8.338891e+03
  4.754516e+01    7.876314e+03
  4.763671e+01    8.037017e+03
  4.772825e+01    7.867799e+03
  4.781979e+01    7.487991e+03
  4.788844e+01    3.021524e+03