File: Output/ROCK_XRD/WAM39B_integrated/wam39b_fin_palier_6_xrd_000001_integrated.dat
# == pyFAI calibration ==
# Distance Sample to Detector: 0.261615 m
# PONI: 2.023e-01, 2.348e-01 m
# Rotations: -0.026380 0.002005 0.000000 rad
#
# == Fit2d calibration ==
# Distance Sample-beamCenter: 261.707 mm
# Center: x=6119.331, y=5134.776 pix
# Tilt: 1.516 deg  TiltPlanRot: 4.347 deg
#
# Detector Rayonix SX165	 PixelSize= 3.950e-05, 3.950e-05 m
#    Detector has a mask: True
#    Detector has a dark current: False
#    detector has a flat field: False
#
# Wavelength: 1.12713e-10 m
# Mask applied: from detector
# Dark current applied: False
# Flat field applied: False
# Polarization factor: None
# Normalization factor: 1.0
# --> ROCK\\WAM39B_integrated\wam39b_fin_palier_6_xrd_000001_integrated.dat
#       2th_deg             I
  2.502596e+01    4.701657e+03
  2.511750e+01    1.915606e+04
  2.520905e+01    1.946321e+04
  2.530059e+01    1.955012e+04
  2.539213e+01    1.900287e+04
  2.548367e+01    1.891676e+04
  2.557521e+01    1.889084e+04
  2.566675e+01    1.911054e+04
  2.575829e+01    1.953719e+04
  2.584984e+01    1.976819e+04
  2.594138e+01    1.958677e+04
  2.603292e+01    1.922188e+04
  2.612446e+01    1.890909e+04
  2.621600e+01    1.870675e+04
  2.630754e+01    1.909544e+04
  2.639908e+01    2.173410e+04
  2.649063e+01    3.131411e+04
  2.658217e+01    2.992884e+04
  2.667371e+01    4.283865e+04
  2.676525e+01    2.828120e+04
  2.685679e+01    1.914343e+04
  2.694833e+01    1.715534e+04
  2.703988e+01    1.651046e+04
  2.713142e+01    1.618925e+04
  2.722296e+01    1.591115e+04
  2.731450e+01    1.570573e+04
  2.740604e+01    1.548638e+04
  2.749758e+01    1.537579e+04
  2.758912e+01    1.527819e+04
  2.768067e+01    1.519144e+04
  2.777221e+01    1.516078e+04
  2.786375e+01    1.526104e+04
  2.795529e+01    1.551865e+04
  2.804683e+01    1.683887e+04
  2.813837e+01    2.092956e+04
  2.822991e+01    1.733519e+04
  2.832146e+01    1.530564e+04
  2.841300e+01    1.449504e+04
  2.850454e+01    1.398892e+04
  2.859608e+01    1.364718e+04
  2.868762e+01    1.337789e+04
  2.877916e+01    1.313196e+04
  2.887070e+01    1.295195e+04
  2.896225e+01    1.278354e+04
  2.905379e+01    1.267645e+04
  2.914533e+01    1.264755e+04
  2.923687e+01    1.253125e+04
  2.932841e+01    1.227055e+04
  2.941995e+01    1.200698e+04
  2.951149e+01    1.184512e+04
  2.960304e+01    1.204052e+04
  2.969458e+01    1.342017e+04
  2.978612e+01    1.196136e+04
  2.987766e+01    1.122147e+04
  2.996920e+01    1.104384e+04
  3.006074e+01    1.096098e+04
  3.015228e+01    1.088747e+04
  3.024383e+01    1.084299e+04
  3.033537e+01    1.082951e+04
  3.042691e+01    1.085271e+04
  3.051845e+01    1.095436e+04
  3.060999e+01    1.132044e+04
  3.070153e+01    1.273324e+04
  3.079308e+01    1.942625e+04
  3.088462e+01    3.973605e+04
  3.097616e+01    3.363892e+04
  3.106770e+01    1.924962e+04
  3.115924e+01    2.783314e+04
  3.125078e+01    2.072701e+04
  3.134232e+01    1.173217e+04
  3.143387e+01    1.045836e+04
  3.152541e+01    1.005890e+04
  3.161695e+01    9.860635e+03
  3.170849e+01    9.731575e+03
  3.180003e+01    9.623371e+03
  3.189157e+01    9.548601e+03
  3.198311e+01    9.493296e+03
  3.207466e+01    9.450722e+03
  3.216620e+01    9.448970e+03
  3.225774e+01    9.426956e+03
  3.234928e+01    9.368251e+03
  3.244082e+01    9.306260e+03
  3.253236e+01    9.732791e+03
  3.262390e+01    1.088491e+04
  3.271545e+01    9.467786e+03
  3.280699e+01    9.096363e+03
  3.289853e+01    9.074975e+03
  3.299007e+01    8.992441e+03
  3.308161e+01    8.847938e+03
  3.317315e+01    8.725721e+03
  3.326469e+01    8.649101e+03
  3.335624e+01    8.606043e+03
  3.344778e+01    8.565476e+03
  3.353932e+01    8.546368e+03
  3.363086e+01    8.539893e+03
  3.372240e+01    8.610827e+03
  3.381394e+01    9.023265e+03
  3.390549e+01    1.302234e+04
  3.399703e+01    2.205416e+04
  3.408857e+01    1.129564e+04
  3.418011e+01    8.685349e+03
  3.427165e+01    8.284114e+03
  3.436319e+01    8.144781e+03
  3.445473e+01    8.063909e+03
  3.454628e+01    8.011118e+03
  3.463782e+01    7.988757e+03
  3.472936e+01    7.984537e+03
  3.482090e+01    7.981891e+03
  3.491244e+01    8.003883e+03
  3.500398e+01    8.031751e+03
  3.509552e+01    8.011604e+03
  3.518707e+01    7.898232e+03
  3.527861e+01    7.754333e+03
  3.537015e+01    7.648678e+03
  3.546169e+01    7.540212e+03
  3.555323e+01    7.479330e+03
  3.564477e+01    7.433303e+03
  3.573631e+01    7.408114e+03
  3.582786e+01    7.389781e+03
  3.591940e+01    7.373044e+03
  3.601094e+01    7.377418e+03
  3.610248e+01    7.384041e+03
  3.619402e+01    7.405250e+03
  3.628556e+01    7.427878e+03
  3.637710e+01    7.525858e+03
  3.646865e+01    8.087071e+03
  3.656019e+01    1.223343e+04
  3.665173e+01    1.042621e+04
  3.674327e+01    7.828762e+03
  3.683481e+01    7.547981e+03
  3.692635e+01    7.506824e+03
  3.701790e+01    7.503233e+03
  3.710944e+01    7.523860e+03
  3.720098e+01    7.575066e+03
  3.729252e+01    7.636303e+03
  3.738406e+01    7.754754e+03
  3.747560e+01    7.971253e+03
  3.756714e+01    8.508127e+03
  3.765869e+01    1.051627e+04
  3.775023e+01    2.829256e+04
  3.784177e+01    7.295508e+04
  3.793331e+01    2.281526e+04
  3.802485e+01    1.012954e+04
  3.811639e+01    8.482700e+03
  3.820793e+01    7.992712e+03
  3.829948e+01    7.786426e+03
  3.839102e+01    7.682232e+03
  3.848256e+01    7.634501e+03
  3.857410e+01    7.625383e+03
  3.866564e+01    7.602577e+03
  3.875718e+01    7.612117e+03
  3.884872e+01    7.646110e+03
  3.894027e+01    8.073729e+03
  3.903181e+01    1.014451e+04
  3.912335e+01    8.422280e+03
  3.921489e+01    7.577030e+03
  3.930643e+01    7.464735e+03
  3.939797e+01    7.418312e+03
  3.948951e+01    7.384540e+03
  3.958106e+01    7.374054e+03
  3.967260e+01    7.371967e+03
  3.976414e+01    7.346028e+03
  3.985568e+01    7.320621e+03
  3.994722e+01    7.274958e+03
  4.003876e+01    7.232175e+03
  4.013031e+01    7.387321e+03
  4.022185e+01    7.867369e+03
  4.031339e+01    7.319864e+03
  4.040493e+01    7.140330e+03
  4.049647e+01    7.105374e+03
  4.058801e+01    7.081153e+03
  4.067955e+01    7.073533e+03
  4.077110e+01    7.065553e+03
  4.086264e+01    7.059944e+03
  4.095418e+01    7.064967e+03
  4.104572e+01    7.099034e+03
  4.113726e+01    7.185938e+03
  4.122880e+01    7.657648e+03
  4.132034e+01    1.207492e+04
  4.141189e+01    1.222746e+04
  4.150343e+01    7.806368e+03
  4.159497e+01    7.284581e+03
  4.168651e+01    7.229118e+03
  4.177805e+01    7.195323e+03
  4.186959e+01    7.143914e+03
  4.196113e+01    7.098879e+03
  4.205268e+01    7.092665e+03
  4.214422e+01    7.123926e+03
  4.223576e+01    7.207269e+03
  4.232730e+01    7.311297e+03
  4.241884e+01    7.877598e+03
  4.251038e+01    8.540206e+03
  4.260192e+01    7.222871e+03
  4.269347e+01    6.945985e+03
  4.278501e+01    6.874944e+03
  4.287655e+01    6.842680e+03
  4.296809e+01    6.833965e+03
  4.305963e+01    6.827399e+03
  4.315117e+01    6.829942e+03
  4.324272e+01    6.867203e+03
  4.333426e+01    6.939061e+03
  4.342580e+01    7.198634e+03
  4.351734e+01    9.522836e+03
  4.360888e+01    1.242037e+04
  4.370042e+01    7.924698e+03
  4.379196e+01    7.149238e+03
  4.388351e+01    7.172137e+03
  4.397505e+01    7.443717e+03
  4.406659e+01    8.336746e+03
  4.415813e+01    1.233522e+04
  4.424967e+01    2.189441e+04
  4.434121e+01    1.548797e+04
  4.443275e+01    9.754530e+03
  4.452430e+01    9.908651e+03
  4.461584e+01    2.468698e+04
  4.470738e+01    2.511090e+04
  4.479892e+01    9.561317e+03
  4.489046e+01    7.435499e+03
  4.498200e+01    7.020853e+03
  4.507354e+01    6.857937e+03
  4.516509e+01    6.789087e+03
  4.525663e+01    6.751829e+03
  4.534817e+01    6.741506e+03
  4.543971e+01    6.758080e+03
  4.553125e+01    6.955657e+03
  4.562279e+01    8.445063e+03
  4.571433e+01    1.398438e+04
  4.580588e+01    8.954360e+03
  4.589742e+01    7.015238e+03
  4.598896e+01    6.773565e+03
  4.608050e+01    6.731122e+03
  4.617204e+01    6.771188e+03
  4.626358e+01    6.811754e+03
  4.635513e+01    6.760710e+03
  4.644667e+01    6.684122e+03
  4.653821e+01    6.675772e+03
  4.662975e+01    6.910189e+03
  4.672129e+01    8.526373e+03
  4.681283e+01    7.942677e+03
  4.690437e+01    6.996112e+03
  4.699592e+01    6.939369e+03
  4.708746e+01    6.962274e+03
  4.717900e+01    6.943157e+03
  4.727054e+01    6.945067e+03
  4.736208e+01    7.006771e+03
  4.745362e+01    7.115250e+03
  4.754516e+01    7.389645e+03
  4.763671e+01    7.762991e+03
  4.772825e+01    8.681133e+03
  4.781979e+01    7.907420e+03
  4.788844e+01    2.943138e+03