File: Output/ROCK_XRD/WAM39B_integrated/rampe3/wam39b_rampe_3_xrd_000004_integrated.dat
# == pyFAI calibration ==
# Distance Sample to Detector: 0.261615 m
# PONI: 2.023e-01, 2.348e-01 m
# Rotations: -0.026380 0.002005 0.000000 rad
#
# == Fit2d calibration ==
# Distance Sample-beamCenter: 261.707 mm
# Center: x=6119.331, y=5134.776 pix
# Tilt: 1.516 deg  TiltPlanRot: 4.347 deg
#
# Detector Rayonix SX165	 PixelSize= 3.950e-05, 3.950e-05 m
#    Detector has a mask: True
#    Detector has a dark current: False
#    detector has a flat field: False
#
# Wavelength: 1.12713e-10 m
# Mask applied: from detector
# Dark current applied: False
# Flat field applied: False
# Polarization factor: None
# Normalization factor: 1.0
# --> ROCK\\WAM39B_integrated\wam39b_rampe_3_xrd_000004_integrated.dat
#       2th_deg             I
  2.502596e+01    4.238808e+03
  2.511750e+01    1.740620e+04
  2.520905e+01    1.768343e+04
  2.530059e+01    1.778701e+04
  2.539213e+01    1.731860e+04
  2.548367e+01    1.732614e+04
  2.557521e+01    1.762488e+04
  2.566675e+01    1.808050e+04
  2.575829e+01    1.823177e+04
  2.584984e+01    1.792852e+04
  2.594138e+01    1.754298e+04
  2.603292e+01    1.720485e+04
  2.612446e+01    1.706377e+04
  2.621600e+01    1.776163e+04
  2.630754e+01    2.172289e+04
  2.639908e+01    3.257719e+04
  2.649063e+01    4.064523e+04
  2.658217e+01    3.071447e+04
  2.667371e+01    1.896688e+04
  2.676525e+01    1.625307e+04
  2.685679e+01    1.543575e+04
  2.694833e+01    1.502521e+04
  2.703988e+01    1.477000e+04
  2.713142e+01    1.459283e+04
  2.722296e+01    1.438836e+04
  2.731450e+01    1.424190e+04
  2.740604e+01    1.407146e+04
  2.749758e+01    1.399047e+04
  2.758912e+01    1.395812e+04
  2.768067e+01    1.400798e+04
  2.777221e+01    1.414187e+04
  2.786375e+01    1.459718e+04
  2.795529e+01    1.653182e+04
  2.804683e+01    1.916066e+04
  2.813837e+01    1.507231e+04
  2.822991e+01    1.366906e+04
  2.832146e+01    1.310407e+04
  2.841300e+01    1.274176e+04
  2.850454e+01    1.248009e+04
  2.859608e+01    1.228082e+04
  2.868762e+01    1.209680e+04
  2.877916e+01    1.195079e+04
  2.887070e+01    1.187286e+04
  2.896225e+01    1.183253e+04
  2.905379e+01    1.169302e+04
  2.914533e+01    1.142226e+04
  2.923687e+01    1.120041e+04
  2.932841e+01    1.102628e+04
  2.941995e+01    1.092506e+04
  2.951149e+01    1.142302e+04
  2.960304e+01    1.220750e+04
  2.969458e+01    1.066601e+04
  2.978612e+01    1.026847e+04
  2.987766e+01    1.010479e+04
  2.996920e+01    1.003519e+04
  3.006074e+01    9.984123e+03
  3.015228e+01    9.979088e+03
  3.024383e+01    9.960995e+03
  3.033537e+01    1.004880e+04
  3.042691e+01    1.035886e+04
  3.051845e+01    1.144363e+04
  3.060999e+01    1.768021e+04
  3.070153e+01    4.068257e+04
  3.079308e+01    2.901492e+04
  3.088462e+01    1.501622e+04
  3.097616e+01    1.587762e+04
  3.106770e+01    2.705607e+04
  3.115924e+01    1.392373e+04
  3.125078e+01    1.001024e+04
  3.134232e+01    9.370660e+03
  3.143387e+01    9.134634e+03
  3.152541e+01    8.984395e+03
  3.161695e+01    8.894885e+03
  3.170849e+01    8.807326e+03
  3.180003e+01    8.743120e+03
  3.189157e+01    8.696469e+03
  3.198311e+01    8.674339e+03
  3.207466e+01    8.671607e+03
  3.216620e+01    8.646073e+03
  3.225774e+01    8.558662e+03
  3.234928e+01    8.594482e+03
  3.244082e+01    9.541862e+03
  3.253236e+01    9.406473e+03
  3.262390e+01    8.455158e+03
  3.271545e+01    8.335744e+03
  3.280699e+01    8.308072e+03
  3.289853e+01    8.205257e+03
  3.299007e+01    8.059835e+03
  3.308161e+01    7.980823e+03
  3.317315e+01    7.929816e+03
  3.326469e+01    7.891053e+03
  3.335624e+01    7.866911e+03
  3.344778e+01    7.855669e+03
  3.353932e+01    7.875612e+03
  3.363086e+01    8.027048e+03
  3.372240e+01    9.152599e+03
  3.381394e+01    1.798005e+04
  3.390549e+01    1.499224e+04
  3.399703e+01    8.545255e+03
  3.408857e+01    7.737646e+03
  3.418011e+01    7.542864e+03
  3.427165e+01    7.464347e+03
  3.436319e+01    7.410148e+03
  3.445473e+01    7.377161e+03
  3.454628e+01    7.340166e+03
  3.463782e+01    7.321929e+03
  3.472936e+01    7.321194e+03
  3.482090e+01    7.337022e+03
  3.491244e+01    7.358287e+03
  3.500398e+01    7.330008e+03
  3.509552e+01    7.219275e+03
  3.518707e+01    7.116428e+03
  3.527861e+01    7.026249e+03
  3.537015e+01    6.940784e+03
  3.546169e+01    6.888613e+03
  3.555323e+01    6.837371e+03
  3.564477e+01    6.805192e+03
  3.573631e+01    6.779481e+03
  3.582786e+01    6.764331e+03
  3.591940e+01    6.764354e+03
  3.601094e+01    6.776742e+03
  3.610248e+01    6.804756e+03
  3.619402e+01    6.861542e+03
  3.628556e+01    7.086732e+03
  3.637710e+01    9.228415e+03
  3.646865e+01    1.126817e+04
  3.656019e+01    7.555262e+03
  3.665173e+01    6.968284e+03
  3.674327e+01    6.900964e+03
  3.683481e+01    6.897833e+03
  3.692635e+01    6.916693e+03
  3.701790e+01    6.941931e+03
  3.710944e+01    7.005494e+03
  3.720098e+01    7.112048e+03
  3.729252e+01    7.267422e+03
  3.738406e+01    7.636483e+03
  3.747560e+01    8.751026e+03
  3.756714e+01    1.635259e+04
  3.765869e+01    6.384202e+04
  3.775023e+01    3.350571e+04
  3.784177e+01    1.062730e+04
  3.793331e+01    8.118305e+03
  3.802485e+01    7.486933e+03
  3.811639e+01    7.252341e+03
  3.820793e+01    7.124941e+03
  3.829948e+01    7.064518e+03
  3.839102e+01    7.030200e+03
  3.848256e+01    7.020498e+03
  3.857410e+01    7.028439e+03
  3.866564e+01    7.048150e+03
  3.875718e+01    7.240062e+03
  3.884872e+01    8.898453e+03
  3.894027e+01    8.274468e+03
  3.903181e+01    7.088259e+03
  3.912335e+01    6.929580e+03
  3.921489e+01    6.880998e+03
  3.930643e+01    6.857348e+03
  3.939797e+01    6.852638e+03
  3.948951e+01    6.845543e+03
  3.958106e+01    6.827393e+03
  3.967260e+01    6.802859e+03
  3.976414e+01    6.743103e+03
  3.985568e+01    6.708426e+03
  3.994722e+01    6.777561e+03
  4.003876e+01    7.235840e+03
  4.013031e+01    6.884754e+03
  4.022185e+01    6.647423e+03
  4.031339e+01    6.602478e+03
  4.040493e+01    6.589118e+03
  4.049647e+01    6.574623e+03
  4.058801e+01    6.555966e+03
  4.067955e+01    6.553260e+03
  4.077110e+01    6.566783e+03
  4.086264e+01    6.595587e+03
  4.095418e+01    6.647357e+03
  4.104572e+01    6.964273e+03
  4.113726e+01    1.006936e+04
  4.122880e+01    1.207737e+04
  4.132034e+01    7.458823e+03
  4.141189e+01    6.815063e+03
  4.150343e+01    6.697391e+03
  4.159497e+01    6.646086e+03
  4.168651e+01    6.603035e+03
  4.177805e+01    6.564349e+03
  4.186959e+01    6.559066e+03
  4.196113e+01    6.603265e+03
  4.205268e+01    6.689203e+03
  4.214422e+01    6.756706e+03
  4.223576e+01    7.148138e+03
  4.232730e+01    7.909374e+03
  4.241884e+01    6.749400e+03
  4.251038e+01    6.468171e+03
  4.260192e+01    6.405926e+03
  4.269347e+01    6.385283e+03
  4.278501e+01    6.361240e+03
  4.287655e+01    6.347927e+03
  4.296809e+01    6.375699e+03
  4.305963e+01    6.394668e+03
  4.315117e+01    6.469752e+03
  4.324272e+01    6.670278e+03
  4.333426e+01    8.612776e+03
  4.342580e+01    1.157010e+04
  4.351734e+01    7.430060e+03
  4.360888e+01    6.714771e+03
  4.370042e+01    6.832917e+03
  4.379196e+01    7.491860e+03
  4.388351e+01    1.149972e+04
  4.397505e+01    2.045785e+04
  4.406659e+01    1.334270e+04
  4.415813e+01    8.402618e+03
  4.424967e+01    7.520825e+03
  4.434121e+01    8.791603e+03
  4.443275e+01    2.278689e+04
  4.452430e+01    2.257700e+04
  4.461584e+01    8.629258e+03
  4.470738e+01    6.860079e+03
  4.479892e+01    6.504571e+03
  4.489046e+01    6.358236e+03
  4.498200e+01    6.315470e+03
  4.507354e+01    6.279293e+03
  4.516509e+01    6.274016e+03
  4.525663e+01    6.307174e+03
  4.534817e+01    6.488236e+03
  4.543971e+01    8.040669e+03
  4.553125e+01    1.271811e+04
  4.562279e+01    7.920227e+03
  4.571433e+01    6.468429e+03
  4.580588e+01    6.302074e+03
  4.589742e+01    6.275638e+03
  4.598896e+01    6.305146e+03
  4.608050e+01    6.305027e+03
  4.617204e+01    6.267023e+03
  4.626358e+01    6.206879e+03
  4.635513e+01    6.174872e+03
  4.644667e+01    6.431683e+03
  4.653821e+01    8.035268e+03
  4.662975e+01    7.097424e+03
  4.672129e+01    6.379479e+03
  4.681283e+01    6.336292e+03
  4.690437e+01    6.323844e+03
  4.699592e+01    6.298028e+03
  4.708746e+01    6.305169e+03
  4.717900e+01    6.316512e+03
  4.727054e+01    6.369913e+03
  4.736208e+01    6.477676e+03
  4.745362e+01    6.785651e+03
  4.754516e+01    8.114632e+03
  4.763671e+01    7.651193e+03
  4.772825e+01    6.971959e+03
  4.781979e+01    6.584984e+03
  4.788844e+01    2.658348e+03