File: Output/ROCK_XRD/WAM39B_integrated/rampe3/wam39b_rampe_3_xrd_000012_integrated.dat
# == pyFAI calibration ==
# Distance Sample to Detector: 0.261615 m
# PONI: 2.023e-01, 2.348e-01 m
# Rotations: -0.026380 0.002005 0.000000 rad
#
# == Fit2d calibration ==
# Distance Sample-beamCenter: 261.707 mm
# Center: x=6119.331, y=5134.776 pix
# Tilt: 1.516 deg  TiltPlanRot: 4.347 deg
#
# Detector Rayonix SX165	 PixelSize= 3.950e-05, 3.950e-05 m
#    Detector has a mask: True
#    Detector has a dark current: False
#    detector has a flat field: False
#
# Wavelength: 1.12713e-10 m
# Mask applied: from detector
# Dark current applied: False
# Flat field applied: False
# Polarization factor: None
# Normalization factor: 1.0
# --> ROCK\\WAM39B_integrated\wam39b_rampe_3_xrd_000012_integrated.dat
#       2th_deg             I
  2.502596e+01    4.409630e+03
  2.511750e+01    1.801989e+04
  2.520905e+01    1.831245e+04
  2.530059e+01    1.838249e+04
  2.539213e+01    1.790858e+04
  2.548367e+01    1.779773e+04
  2.557521e+01    1.780559e+04
  2.566675e+01    1.807770e+04
  2.575829e+01    1.849527e+04
  2.584984e+01    1.863609e+04
  2.594138e+01    1.841453e+04
  2.603292e+01    1.809967e+04
  2.612446e+01    1.778163e+04
  2.621600e+01    1.765829e+04
  2.630754e+01    1.819317e+04
  2.639908e+01    2.159943e+04
  2.649063e+01    3.028851e+04
  2.658217e+01    2.969130e+04
  2.667371e+01    4.064689e+04
  2.676525e+01    2.401181e+04
  2.685679e+01    1.751361e+04
  2.694833e+01    1.603721e+04
  2.703988e+01    1.549973e+04
  2.713142e+01    1.522907e+04
  2.722296e+01    1.498223e+04
  2.731450e+01    1.479095e+04
  2.740604e+01    1.458462e+04
  2.749758e+01    1.446997e+04
  2.758912e+01    1.439148e+04
  2.768067e+01    1.431942e+04
  2.777221e+01    1.431154e+04
  2.786375e+01    1.443267e+04
  2.795529e+01    1.476018e+04
  2.804683e+01    1.645995e+04
  2.813837e+01    1.976616e+04
  2.822991e+01    1.584361e+04
  2.832146e+01    1.427133e+04
  2.841300e+01    1.358576e+04
  2.850454e+01    1.314577e+04
  2.859608e+01    1.283258e+04
  2.868762e+01    1.257562e+04
  2.877916e+01    1.236842e+04
  2.887070e+01    1.220211e+04
  2.896225e+01    1.206400e+04
  2.905379e+01    1.198318e+04
  2.914533e+01    1.194335e+04
  2.923687e+01    1.180897e+04
  2.932841e+01    1.153901e+04
  2.941995e+01    1.130143e+04
  2.951149e+01    1.115924e+04
  2.960304e+01    1.154956e+04
  2.969458e+01    1.266272e+04
  2.978612e+01    1.107395e+04
  2.987766e+01    1.055041e+04
  2.996920e+01    1.040627e+04
  3.006074e+01    1.032354e+04
  3.015228e+01    1.028315e+04
  3.024383e+01    1.023582e+04
  3.033537e+01    1.021630e+04
  3.042691e+01    1.025251e+04
  3.051845e+01    1.039451e+04
  3.060999e+01    1.083001e+04
  3.070153e+01    1.267728e+04
  3.079308e+01    2.152509e+04
  3.088462e+01    4.065229e+04
  3.097616e+01    2.743434e+04
  3.106770e+01    1.778031e+04
  3.115924e+01    2.813130e+04
  3.125078e+01    1.681111e+04
  3.134232e+01    1.067309e+04
  3.143387e+01    9.756933e+03
  3.152541e+01    9.456999e+03
  3.161695e+01    9.284078e+03
  3.170849e+01    9.154521e+03
  3.180003e+01    9.077359e+03
  3.189157e+01    9.010880e+03
  3.198311e+01    8.960556e+03
  3.207466e+01    8.930066e+03
  3.216620e+01    8.918329e+03
  3.225774e+01    8.899368e+03
  3.234928e+01    8.839972e+03
  3.244082e+01    8.804677e+03
  3.253236e+01    9.454702e+03
  3.262390e+01    1.009389e+04
  3.271545e+01    8.800478e+03
  3.280699e+01    8.587044e+03
  3.289853e+01    8.550720e+03
  3.299007e+01    8.473065e+03
  3.308161e+01    8.325450e+03
  3.317315e+01    8.209336e+03
  3.326469e+01    8.155292e+03
  3.335624e+01    8.118704e+03
  3.344778e+01    8.080665e+03
  3.353932e+01    8.062007e+03
  3.363086e+01    8.070432e+03
  3.372240e+01    8.165962e+03
  3.381394e+01    8.761195e+03
  3.390549e+01    1.463082e+04
  3.399703e+01    1.926230e+04
  3.408857e+01    9.670740e+03
  3.418011e+01    8.076048e+03
  3.427165e+01    7.792282e+03
  3.436319e+01    7.682885e+03
  3.445473e+01    7.606287e+03
  3.454628e+01    7.564261e+03
  3.463782e+01    7.545562e+03
  3.472936e+01    7.542275e+03
  3.482090e+01    7.543960e+03
  3.491244e+01    7.563749e+03
  3.500398e+01    7.584188e+03
  3.509552e+01    7.549336e+03
  3.518707e+01    7.429930e+03
  3.527861e+01    7.305110e+03
  3.537015e+01    7.192069e+03
  3.546169e+01    7.116854e+03
  3.555323e+01    7.053980e+03
  3.564477e+01    7.010236e+03
  3.573631e+01    6.988407e+03
  3.582786e+01    6.966498e+03
  3.591940e+01    6.959226e+03
  3.601094e+01    6.967572e+03
  3.610248e+01    6.979160e+03
  3.619402e+01    6.987037e+03
  3.628556e+01    7.031253e+03
  3.637710e+01    7.152901e+03
  3.646865e+01    8.051724e+03
  3.656019e+01    1.228526e+04
  3.665173e+01    8.901615e+03
  3.674327e+01    7.281133e+03
  3.683481e+01    7.105330e+03
  3.692635e+01    7.087770e+03
  3.701790e+01    7.098454e+03
  3.710944e+01    7.111548e+03
  3.720098e+01    7.166542e+03
  3.729252e+01    7.242927e+03
  3.738406e+01    7.357206e+03
  3.747560e+01    7.612995e+03
  3.756714e+01    8.272574e+03
  3.765869e+01    1.116621e+04
  3.775023e+01    3.912340e+04
  3.784177e+01    6.109430e+04
  3.793331e+01    1.611493e+04
  3.802485e+01    9.010910e+03
  3.811639e+01    7.880933e+03
  3.820793e+01    7.500141e+03
  3.829948e+01    7.339922e+03
  3.839102e+01    7.243562e+03
  3.848256e+01    7.210698e+03
  3.857410e+01    7.196141e+03
  3.866564e+01    7.192998e+03
  3.875718e+01    7.201600e+03
  3.884872e+01    7.256198e+03
  3.894027e+01    7.977022e+03
  3.903181e+01    9.559301e+03
  3.912335e+01    7.604371e+03
  3.921489e+01    7.131800e+03
  3.930643e+01    7.042559e+03
  3.939797e+01    7.007278e+03
  3.948951e+01    6.967161e+03
  3.958106e+01    6.971524e+03
  3.967260e+01    6.970678e+03
  3.976414e+01    6.933665e+03
  3.985568e+01    6.906662e+03
  3.994722e+01    6.864379e+03
  4.003876e+01    6.848167e+03
  4.013031e+01    7.109628e+03
  4.022185e+01    7.363760e+03
  4.031339e+01    6.848790e+03
  4.040493e+01    6.742845e+03
  4.049647e+01    6.709771e+03
  4.058801e+01    6.690707e+03
  4.067955e+01    6.679576e+03
  4.077110e+01    6.668393e+03
  4.086264e+01    6.673659e+03
  4.095418e+01    6.681130e+03
  4.104572e+01    6.719043e+03
  4.113726e+01    6.851250e+03
  4.122880e+01    7.656870e+03
  4.132034e+01    1.302709e+04
  4.141189e+01    1.000618e+04
  4.150343e+01    7.156471e+03
  4.159497e+01    6.865005e+03
  4.168651e+01    6.835896e+03
  4.177805e+01    6.796600e+03
  4.186959e+01    6.736048e+03
  4.196113e+01    6.711700e+03
  4.205268e+01    6.718440e+03
  4.214422e+01    6.762381e+03
  4.223576e+01    6.838026e+03
  4.232730e+01    6.970740e+03
  4.241884e+01    7.831749e+03
  4.251038e+01    7.741860e+03
  4.260192e+01    6.710430e+03
  4.269347e+01    6.544517e+03
  4.278501e+01    6.493339e+03
  4.287655e+01    6.466615e+03
  4.296809e+01    6.466859e+03
  4.305963e+01    6.457103e+03
  4.315117e+01    6.475192e+03
  4.324272e+01    6.506395e+03
  4.333426e+01    6.605114e+03
  4.342580e+01    7.005264e+03
  4.351734e+01    1.060541e+04
  4.360888e+01    1.056914e+04
  4.370042e+01    7.105344e+03
  4.379196e+01    6.756291e+03
  4.388351e+01    6.856370e+03
  4.397505e+01    7.198234e+03
  4.406659e+01    8.575928e+03
  4.415813e+01    1.456399e+04
  4.424967e+01    2.048804e+04
  4.434121e+01    1.209831e+04
  4.443275e+01    8.732390e+03
  4.452430e+01    1.077387e+04
  4.461584e+01    2.916123e+04
  4.470738e+01    1.789583e+04
  4.479892e+01    8.074055e+03
  4.489046e+01    6.881453e+03
  4.498200e+01    6.592591e+03
  4.507354e+01    6.470270e+03
  4.516509e+01    6.410711e+03
  4.525663e+01    6.377114e+03
  4.534817e+01    6.380948e+03
  4.543971e+01    6.419383e+03
  4.553125e+01    6.725882e+03
  4.562279e+01    9.431967e+03
  4.571433e+01    1.267164e+04
  4.580588e+01    7.514459e+03
  4.589742e+01    6.530066e+03
  4.598896e+01    6.392146e+03
  4.608050e+01    6.376860e+03
  4.617204e+01    6.414548e+03
  4.626358e+01    6.444371e+03
  4.635513e+01    6.384500e+03
  4.644667e+01    6.318162e+03
  4.653821e+01    6.350230e+03
  4.662975e+01    6.763615e+03
  4.672129e+01    8.356292e+03
  4.681283e+01    7.057570e+03
  4.690437e+01    6.561625e+03
  4.699592e+01    6.548195e+03
  4.708746e+01    6.573419e+03
  4.717900e+01    6.552861e+03
  4.727054e+01    6.568624e+03
  4.736208e+01    6.611130e+03
  4.745362e+01    6.747556e+03
  4.754516e+01    7.016234e+03
  4.763671e+01    7.498364e+03
  4.772825e+01    8.450391e+03
  4.781979e+01    7.167391e+03
  4.788844e+01    2.746688e+03