File: Output/ROCK_XRD/WAM39B_integrated/rampe3/wam39b_rampe_3_xrd_000008_integrated.dat
# == pyFAI calibration ==
# Distance Sample to Detector: 0.261615 m
# PONI: 2.023e-01, 2.348e-01 m
# Rotations: -0.026380 0.002005 0.000000 rad
#
# == Fit2d calibration ==
# Distance Sample-beamCenter: 261.707 mm
# Center: x=6119.331, y=5134.776 pix
# Tilt: 1.516 deg  TiltPlanRot: 4.347 deg
#
# Detector Rayonix SX165	 PixelSize= 3.950e-05, 3.950e-05 m
#    Detector has a mask: True
#    Detector has a dark current: False
#    detector has a flat field: False
#
# Wavelength: 1.12713e-10 m
# Mask applied: from detector
# Dark current applied: False
# Flat field applied: False
# Polarization factor: None
# Normalization factor: 1.0
# --> ROCK\\WAM39B_integrated\wam39b_rampe_3_xrd_000008_integrated.dat
#       2th_deg             I
  2.502596e+01    4.229762e+03
  2.511750e+01    1.738025e+04
  2.520905e+01    1.764596e+04
  2.530059e+01    1.772943e+04
  2.539213e+01    1.723771e+04
  2.548367e+01    1.718552e+04
  2.557521e+01    1.727166e+04
  2.566675e+01    1.768747e+04
  2.575829e+01    1.800480e+04
  2.584984e+01    1.797087e+04
  2.594138e+01    1.764847e+04
  2.603292e+01    1.739292e+04
  2.612446e+01    1.704810e+04
  2.621600e+01    1.710971e+04
  2.630754e+01    1.825872e+04
  2.639908e+01    2.472500e+04
  2.649063e+01    2.971978e+04
  2.658217e+01    3.777595e+04
  2.667371e+01    3.072773e+04
  2.676525e+01    1.864984e+04
  2.685679e+01    1.600299e+04
  2.694833e+01    1.520764e+04
  2.703988e+01    1.484038e+04
  2.713142e+01    1.461535e+04
  2.722296e+01    1.438276e+04
  2.731450e+01    1.420885e+04
  2.740604e+01    1.403354e+04
  2.749758e+01    1.393739e+04
  2.758912e+01    1.387661e+04
  2.768067e+01    1.384046e+04
  2.777221e+01    1.386467e+04
  2.786375e+01    1.405424e+04
  2.795529e+01    1.469155e+04
  2.804683e+01    1.779464e+04
  2.813837e+01    1.772760e+04
  2.822991e+01    1.441070e+04
  2.832146e+01    1.344916e+04
  2.841300e+01    1.289910e+04
  2.850454e+01    1.256245e+04
  2.859608e+01    1.229546e+04
  2.868762e+01    1.208749e+04
  2.877916e+01    1.190237e+04
  2.887070e+01    1.175646e+04
  2.896225e+01    1.166181e+04
  2.905379e+01    1.161564e+04
  2.914533e+01    1.151633e+04
  2.923687e+01    1.128902e+04
  2.932841e+01    1.104758e+04
  2.941995e+01    1.086023e+04
  2.951149e+01    1.082489e+04
  2.960304e+01    1.180142e+04
  2.969458e+01    1.161676e+04
  2.978612e+01    1.037437e+04
  2.987766e+01    1.011326e+04
  2.996920e+01    9.999699e+03
  3.006074e+01    9.940788e+03
  3.015228e+01    9.900111e+03
  3.024383e+01    9.870464e+03
  3.033537e+01    9.867685e+03
  3.042691e+01    9.957897e+03
  3.051845e+01    1.022432e+04
  3.060999e+01    1.115015e+04
  3.070153e+01    1.593173e+04
  3.079308e+01    3.538872e+04
  3.088462e+01    3.370422e+04
  3.097616e+01    1.732924e+04
  3.106770e+01    1.972224e+04
  3.115924e+01    2.494871e+04
  3.125078e+01    1.207322e+04
  3.134232e+01    9.717608e+03
  3.143387e+01    9.246747e+03
  3.152541e+01    9.035643e+03
  3.161695e+01    8.894685e+03
  3.170849e+01    8.797760e+03
  3.180003e+01    8.719617e+03
  3.189157e+01    8.662304e+03
  3.198311e+01    8.628744e+03
  3.207466e+01    8.598441e+03
  3.216620e+01    8.599494e+03
  3.225774e+01    8.560427e+03
  3.234928e+01    8.478619e+03
  3.244082e+01    8.619839e+03
  3.253236e+01    9.839837e+03
  3.262390e+01    9.007977e+03
  3.271545e+01    8.340716e+03
  3.280699e+01    8.258890e+03
  3.289853e+01    8.238322e+03
  3.299007e+01    8.104607e+03
  3.308161e+01    7.980408e+03
  3.317315e+01    7.903623e+03
  3.326469e+01    7.850301e+03
  3.335624e+01    7.817069e+03
  3.344778e+01    7.801121e+03
  3.353932e+01    7.779536e+03
  3.363086e+01    7.812575e+03
  3.372240e+01    8.037162e+03
  3.381394e+01    9.817813e+03
  3.390549e+01    1.992728e+04
  3.399703e+01    1.284600e+04
  3.408857e+01    8.205793e+03
  3.418011e+01    7.622783e+03
  3.427165e+01    7.452702e+03
  3.436319e+01    7.376746e+03
  3.445473e+01    7.317938e+03
  3.454628e+01    7.299979e+03
  3.463782e+01    7.281036e+03
  3.472936e+01    7.270943e+03
  3.482090e+01    7.265667e+03
  3.491244e+01    7.301030e+03
  3.500398e+01    7.300665e+03
  3.509552e+01    7.235461e+03
  3.518707e+01    7.128218e+03
  3.527861e+01    7.021070e+03
  3.537015e+01    6.923069e+03
  3.546169e+01    6.842950e+03
  3.555323e+01    6.796546e+03
  3.564477e+01    6.756114e+03
  3.573631e+01    6.733494e+03
  3.582786e+01    6.719634e+03
  3.591940e+01    6.709886e+03
  3.601094e+01    6.716857e+03
  3.610248e+01    6.731094e+03
  3.619402e+01    6.761434e+03
  3.628556e+01    6.820669e+03
  3.637710e+01    7.115048e+03
  3.646865e+01    9.871678e+03
  3.656019e+01    1.078088e+04
  3.665173e+01    7.354601e+03
  3.674327e+01    6.901842e+03
  3.683481e+01    6.838022e+03
  3.692635e+01    6.839983e+03
  3.701790e+01    6.856748e+03
  3.710944e+01    6.888054e+03
  3.720098e+01    6.954374e+03
  3.729252e+01    7.049667e+03
  3.738406e+01    7.221469e+03
  3.747560e+01    7.621525e+03
  3.756714e+01    8.921739e+03
  3.765869e+01    1.851138e+04
  3.775023e+01    6.699014e+04
  3.784177e+01    2.940942e+04
  3.793331e+01    1.015981e+04
  3.802485e+01    7.938874e+03
  3.811639e+01    7.382765e+03
  3.820793e+01    7.145161e+03
  3.829948e+01    7.042553e+03
  3.839102e+01    6.976065e+03
  3.848256e+01    6.960041e+03
  3.857410e+01    6.955982e+03
  3.866564e+01    6.958907e+03
  3.875718e+01    6.986490e+03
  3.884872e+01    7.201833e+03
  3.894027e+01    9.002719e+03
  3.903181e+01    8.110443e+03
  3.912335e+01    6.990772e+03
  3.921489e+01    6.832837e+03
  3.930643e+01    6.795238e+03
  3.939797e+01    6.769627e+03
  3.948951e+01    6.742553e+03
  3.958106e+01    6.752814e+03
  3.967260e+01    6.736189e+03
  3.976414e+01    6.701587e+03
  3.985568e+01    6.666070e+03
  3.994722e+01    6.633829e+03
  4.003876e+01    6.692595e+03
  4.013031e+01    7.190732e+03
  4.022185e+01    6.773354e+03
  4.031339e+01    6.550672e+03
  4.040493e+01    6.504939e+03
  4.049647e+01    6.492370e+03
  4.058801e+01    6.471518e+03
  4.067955e+01    6.460693e+03
  4.077110e+01    6.458513e+03
  4.086264e+01    6.467909e+03
  4.095418e+01    6.502381e+03
  4.104572e+01    6.565944e+03
  4.113726e+01    6.878519e+03
  4.122880e+01    1.005131e+04
  4.132034e+01    1.207222e+04
  4.141189e+01    7.389170e+03
  4.150343e+01    6.712885e+03
  4.159497e+01    6.632544e+03
  4.168651e+01    6.592999e+03
  4.177805e+01    6.538949e+03
  4.186959e+01    6.493263e+03
  4.196113e+01    6.480176e+03
  4.205268e+01    6.511946e+03
  4.214422e+01    6.594946e+03
  4.223576e+01    6.686970e+03
  4.232730e+01    7.061254e+03
  4.241884e+01    7.918868e+03
  4.251038e+01    6.694027e+03
  4.260192e+01    6.379229e+03
  4.269347e+01    6.306310e+03
  4.278501e+01    6.276048e+03
  4.287655e+01    6.265062e+03
  4.296809e+01    6.267646e+03
  4.305963e+01    6.264512e+03
  4.315117e+01    6.289100e+03
  4.324272e+01    6.365396e+03
  4.333426e+01    6.560311e+03
  4.342580e+01    8.297145e+03
  4.351734e+01    1.172947e+04
  4.360888e+01    7.475942e+03
  4.370042e+01    6.591846e+03
  4.379196e+01    6.610160e+03
  4.388351e+01    6.904653e+03
  4.397505e+01    8.051569e+03
  4.406659e+01    1.368619e+04
  4.415813e+01    2.023397e+04
  4.424967e+01    1.184904e+04
  4.434121e+01    8.245062e+03
  4.443275e+01    8.674242e+03
  4.452430e+01    2.091775e+04
  4.461584e+01    2.464730e+04
  4.470738e+01    9.084319e+03
  4.479892e+01    6.875735e+03
  4.489046e+01    6.441520e+03
  4.498200e+01    6.302043e+03
  4.507354e+01    6.219975e+03
  4.516509e+01    6.191927e+03
  4.525663e+01    6.180479e+03
  4.534817e+01    6.213952e+03
  4.543971e+01    6.363707e+03
  4.553125e+01    7.592949e+03
  4.562279e+01    1.280951e+04
  4.571433e+01    8.431958e+03
  4.580588e+01    6.446996e+03
  4.589742e+01    6.221128e+03
  4.598896e+01    6.180707e+03
  4.608050e+01    6.198105e+03
  4.617204e+01    6.229179e+03
  4.626358e+01    6.209721e+03
  4.635513e+01    6.123509e+03
  4.644667e+01    6.102905e+03
  4.653821e+01    6.300445e+03
  4.662975e+01    7.792795e+03
  4.672129e+01    7.301086e+03
  4.681283e+01    6.379025e+03
  4.690437e+01    6.310184e+03
  4.699592e+01    6.309626e+03
  4.708746e+01    6.308155e+03
  4.717900e+01    6.301557e+03
  4.727054e+01    6.341012e+03
  4.736208e+01    6.386401e+03
  4.745362e+01    6.539531e+03
  4.754516e+01    6.922608e+03
  4.763671e+01    8.121062e+03
  4.772825e+01    7.641461e+03
  4.781979e+01    6.602965e+03
  4.788844e+01    2.630408e+03