File: Output/ROCK_XRD/WAM39B_integrated/rampe3/wam39b_rampe_3_xrd_000006_integrated.dat
# == pyFAI calibration ==
# Distance Sample to Detector: 0.261615 m
# PONI: 2.023e-01, 2.348e-01 m
# Rotations: -0.026380 0.002005 0.000000 rad
#
# == Fit2d calibration ==
# Distance Sample-beamCenter: 261.707 mm
# Center: x=6119.331, y=5134.776 pix
# Tilt: 1.516 deg  TiltPlanRot: 4.347 deg
#
# Detector Rayonix SX165	 PixelSize= 3.950e-05, 3.950e-05 m
#    Detector has a mask: True
#    Detector has a dark current: False
#    detector has a flat field: False
#
# Wavelength: 1.12713e-10 m
# Mask applied: from detector
# Dark current applied: False
# Flat field applied: False
# Polarization factor: None
# Normalization factor: 1.0
# --> ROCK\\WAM39B_integrated\wam39b_rampe_3_xrd_000006_integrated.dat
#       2th_deg             I
  2.502596e+01    4.955747e+03
  2.511750e+01    2.027134e+04
  2.520905e+01    2.056472e+04
  2.530059e+01    2.066432e+04
  2.539213e+01    2.009055e+04
  2.548367e+01    2.002489e+04
  2.557521e+01    2.015107e+04
  2.566675e+01    2.062709e+04
  2.575829e+01    2.095765e+04
  2.584984e+01    2.090810e+04
  2.594138e+01    2.052561e+04
  2.603292e+01    2.016928e+04
  2.612446e+01    1.976733e+04
  2.621600e+01    1.991897e+04
  2.630754e+01    2.136159e+04
  2.639908e+01    2.941562e+04
  2.649063e+01    3.643174e+04
  2.658217e+01    4.744902e+04
  2.667371e+01    3.089738e+04
  2.676525e+01    2.069588e+04
  2.685679e+01    1.841381e+04
  2.694833e+01    1.765719e+04
  2.703988e+01    1.723687e+04
  2.713142e+01    1.699476e+04
  2.722296e+01    1.672521e+04
  2.731450e+01    1.653075e+04
  2.740604e+01    1.634255e+04
  2.749758e+01    1.622038e+04
  2.758912e+01    1.613845e+04
  2.768067e+01    1.611719e+04
  2.777221e+01    1.617601e+04
  2.786375e+01    1.641773e+04
  2.795529e+01    1.718528e+04
  2.804683e+01    2.083881e+04
  2.813837e+01    2.036075e+04
  2.822991e+01    1.659213e+04
  2.832146e+01    1.552740e+04
  2.841300e+01    1.494366e+04
  2.850454e+01    1.456147e+04
  2.859608e+01    1.429962e+04
  2.868762e+01    1.402796e+04
  2.877916e+01    1.383406e+04
  2.887070e+01    1.367852e+04
  2.896225e+01    1.358449e+04
  2.905379e+01    1.352776e+04
  2.914533e+01    1.334633e+04
  2.923687e+01    1.306181e+04
  2.932841e+01    1.277888e+04
  2.941995e+01    1.258921e+04
  2.951149e+01    1.255295e+04
  2.960304e+01    1.372447e+04
  2.969458e+01    1.338738e+04
  2.978612e+01    1.202706e+04
  2.987766e+01    1.172834e+04
  2.996920e+01    1.160951e+04
  3.006074e+01    1.152981e+04
  3.015228e+01    1.149187e+04
  3.024383e+01    1.145973e+04
  3.033537e+01    1.147719e+04
  3.042691e+01    1.159213e+04
  3.051845e+01    1.196893e+04
  3.060999e+01    1.342807e+04
  3.070153e+01    2.176856e+04
  3.079308e+01    4.720996e+04
  3.088462e+01    3.170196e+04
  3.097616e+01    1.740871e+04
  3.106770e+01    2.262757e+04
  3.115924e+01    2.814339e+04
  3.125078e+01    1.370685e+04
  3.134232e+01    1.121136e+04
  3.143387e+01    1.070736e+04
  3.152541e+01    1.045747e+04
  3.161695e+01    1.030861e+04
  3.170849e+01    1.020201e+04
  3.180003e+01    1.011329e+04
  3.189157e+01    1.003984e+04
  3.198311e+01    1.000635e+04
  3.207466e+01    9.978222e+03
  3.216620e+01    9.963088e+03
  3.225774e+01    9.926515e+03
  3.234928e+01    9.848220e+03
  3.244082e+01    9.975929e+03
  3.253236e+01    1.140023e+04
  3.262390e+01    1.037733e+04
  3.271545e+01    9.662018e+03
  3.280699e+01    9.579101e+03
  3.289853e+01    9.545001e+03
  3.299007e+01    9.386954e+03
  3.308161e+01    9.242781e+03
  3.317315e+01    9.164212e+03
  3.326469e+01    9.106031e+03
  3.335624e+01    9.063311e+03
  3.344778e+01    9.036702e+03
  3.353932e+01    9.025193e+03
  3.363086e+01    9.062251e+03
  3.372240e+01    9.325583e+03
  3.381394e+01    1.148197e+04
  3.390549e+01    2.312237e+04
  3.399703e+01    1.437790e+04
  3.408857e+01    9.443583e+03
  3.418011e+01    8.829642e+03
  3.427165e+01    8.646740e+03
  3.436319e+01    8.548241e+03
  3.445473e+01    8.494172e+03
  3.454628e+01    8.461052e+03
  3.463782e+01    8.426107e+03
  3.472936e+01    8.400645e+03
  3.482090e+01    8.411863e+03
  3.491244e+01    8.447450e+03
  3.500398e+01    8.457154e+03
  3.509552e+01    8.389448e+03
  3.518707e+01    8.273403e+03
  3.527861e+01    8.144180e+03
  3.537015e+01    8.039523e+03
  3.546169e+01    7.938270e+03
  3.555323e+01    7.883918e+03
  3.564477e+01    7.832835e+03
  3.573631e+01    7.798413e+03
  3.582786e+01    7.785640e+03
  3.591940e+01    7.778431e+03
  3.601094e+01    7.785433e+03
  3.610248e+01    7.803822e+03
  3.619402e+01    7.836347e+03
  3.628556e+01    7.902450e+03
  3.637710e+01    8.271604e+03
  3.646865e+01    1.158207e+04
  3.656019e+01    1.218939e+04
  3.665173e+01    8.464112e+03
  3.674327e+01    7.997601e+03
  3.683481e+01    7.941652e+03
  3.692635e+01    7.938553e+03
  3.701790e+01    7.953925e+03
  3.710944e+01    7.997521e+03
  3.720098e+01    8.066685e+03
  3.729252e+01    8.182062e+03
  3.738406e+01    8.400714e+03
  3.747560e+01    8.857688e+03
  3.756714e+01    1.041220e+04
  3.765869e+01    2.223966e+04
  3.775023e+01    7.742884e+04
  3.784177e+01    3.174037e+04
  3.793331e+01    1.153761e+04
  3.802485e+01    9.173127e+03
  3.811639e+01    8.564527e+03
  3.820793e+01    8.294392e+03
  3.829948e+01    8.177726e+03
  3.839102e+01    8.110702e+03
  3.848256e+01    8.083629e+03
  3.857410e+01    8.081380e+03
  3.866564e+01    8.076497e+03
  3.875718e+01    8.114179e+03
  3.884872e+01    8.394152e+03
  3.894027e+01    1.048427e+04
  3.903181e+01    9.272590e+03
  3.912335e+01    8.104840e+03
  3.921489e+01    7.947219e+03
  3.930643e+01    7.890380e+03
  3.939797e+01    7.863507e+03
  3.948951e+01    7.849477e+03
  3.958106e+01    7.851093e+03
  3.967260e+01    7.826123e+03
  3.976414e+01    7.787154e+03
  3.985568e+01    7.743486e+03
  3.994722e+01    7.712269e+03
  4.003876e+01    7.789832e+03
  4.013031e+01    8.342492e+03
  4.022185e+01    7.848456e+03
  4.031339e+01    7.617620e+03
  4.040493e+01    7.571777e+03
  4.049647e+01    7.542571e+03
  4.058801e+01    7.530636e+03
  4.067955e+01    7.511294e+03
  4.077110e+01    7.512428e+03
  4.086264e+01    7.526524e+03
  4.095418e+01    7.558572e+03
  4.104572e+01    7.638224e+03
  4.113726e+01    8.027954e+03
  4.122880e+01    1.187818e+04
  4.132034e+01    1.363958e+04
  4.141189e+01    8.487630e+03
  4.150343e+01    7.798922e+03
  4.159497e+01    7.695022e+03
  4.168651e+01    7.641505e+03
  4.177805e+01    7.579800e+03
  4.186959e+01    7.532423e+03
  4.196113e+01    7.534714e+03
  4.205268e+01    7.564579e+03
  4.214422e+01    7.662705e+03
  4.223576e+01    7.761255e+03
  4.232730e+01    8.221109e+03
  4.241884e+01    9.101337e+03
  4.251038e+01    7.735330e+03
  4.260192e+01    7.413275e+03
  4.269347e+01    7.341810e+03
  4.278501e+01    7.301085e+03
  4.287655e+01    7.293787e+03
  4.296809e+01    7.290662e+03
  4.305963e+01    7.289236e+03
  4.315117e+01    7.323021e+03
  4.324272e+01    7.408988e+03
  4.333426e+01    7.630890e+03
  4.342580e+01    9.791305e+03
  4.351734e+01    1.333710e+04
  4.360888e+01    8.545484e+03
  4.370042e+01    7.676277e+03
  4.379196e+01    7.739374e+03
  4.388351e+01    8.238244e+03
  4.397505e+01    1.056242e+04
  4.406659e+01    2.080541e+04
  4.415813e+01    1.974062e+04
  4.424967e+01    1.098015e+04
  4.434121e+01    8.922322e+03
  4.443275e+01    9.991487e+03
  4.452430e+01    2.502136e+04
  4.461584e+01    2.704307e+04
  4.470738e+01    1.017922e+04
  4.479892e+01    7.924463e+03
  4.489046e+01    7.464725e+03
  4.498200e+01    7.316505e+03
  4.507354e+01    7.238475e+03
  4.516509e+01    7.207769e+03
  4.525663e+01    7.193114e+03
  4.534817e+01    7.224752e+03
  4.543971e+01    7.399835e+03
  4.553125e+01    8.927371e+03
  4.562279e+01    1.467899e+04
  4.571433e+01    9.467023e+03
  4.580588e+01    7.459060e+03
  4.589742e+01    7.224930e+03
  4.598896e+01    7.191686e+03
  4.608050e+01    7.205494e+03
  4.617204e+01    7.235238e+03
  4.626358e+01    7.218538e+03
  4.635513e+01    7.119247e+03
  4.644667e+01    7.097191e+03
  4.653821e+01    7.337598e+03
  4.662975e+01    9.090490e+03
  4.672129e+01    8.365937e+03
  4.681283e+01    7.387732e+03
  4.690437e+01    7.323862e+03
  4.699592e+01    7.322618e+03
  4.708746e+01    7.319254e+03
  4.717900e+01    7.308270e+03
  4.727054e+01    7.347981e+03
  4.736208e+01    7.433363e+03
  4.745362e+01    7.596802e+03
  4.754516e+01    8.037337e+03
  4.763671e+01    9.468144e+03
  4.772825e+01    8.797432e+03
  4.781979e+01    7.650720e+03
  4.788844e+01    3.065447e+03