File: Output/ROCK_XRD/WAM39B_integrated/rampe3/wam39b_rampe_3_xrd_000002_integrated.dat
# == pyFAI calibration ==
# Distance Sample to Detector: 0.261615 m
# PONI: 2.023e-01, 2.348e-01 m
# Rotations: -0.026380 0.002005 0.000000 rad
#
# == Fit2d calibration ==
# Distance Sample-beamCenter: 261.707 mm
# Center: x=6119.331, y=5134.776 pix
# Tilt: 1.516 deg  TiltPlanRot: 4.347 deg
#
# Detector Rayonix SX165	 PixelSize= 3.950e-05, 3.950e-05 m
#    Detector has a mask: True
#    Detector has a dark current: False
#    detector has a flat field: False
#
# Wavelength: 1.12713e-10 m
# Mask applied: from detector
# Dark current applied: False
# Flat field applied: False
# Polarization factor: None
# Normalization factor: 1.0
# --> ROCK\\WAM39B_integrated\wam39b_rampe_3_xrd_000002_integrated.dat
#       2th_deg             I
  2.502596e+01    4.850250e+03
  2.511750e+01    1.985599e+04
  2.520905e+01    2.017605e+04
  2.530059e+01    2.029827e+04
  2.539213e+01    1.975479e+04
  2.548367e+01    1.978511e+04
  2.557521e+01    2.008778e+04
  2.566675e+01    2.059324e+04
  2.575829e+01    2.072055e+04
  2.584984e+01    2.038448e+04
  2.594138e+01    1.990292e+04
  2.603292e+01    1.952991e+04
  2.612446e+01    1.942451e+04
  2.621600e+01    2.031960e+04
  2.630754e+01    2.530986e+04
  2.639908e+01    3.927098e+04
  2.649063e+01    4.867040e+04
  2.658217e+01    3.063259e+04
  2.667371e+01    2.065170e+04
  2.676525e+01    1.831302e+04
  2.685679e+01    1.752481e+04
  2.694833e+01    1.710099e+04
  2.703988e+01    1.682030e+04
  2.713142e+01    1.659879e+04
  2.722296e+01    1.638709e+04
  2.731450e+01    1.622461e+04
  2.740604e+01    1.604649e+04
  2.749758e+01    1.595671e+04
  2.758912e+01    1.591726e+04
  2.768067e+01    1.597540e+04
  2.777221e+01    1.615371e+04
  2.786375e+01    1.670006e+04
  2.795529e+01    1.897636e+04
  2.804683e+01    2.160949e+04
  2.813837e+01    1.698733e+04
  2.822991e+01    1.550495e+04
  2.832146e+01    1.489225e+04
  2.841300e+01    1.447948e+04
  2.850454e+01    1.419166e+04
  2.859608e+01    1.395853e+04
  2.868762e+01    1.376131e+04
  2.877916e+01    1.360056e+04
  2.887070e+01    1.351177e+04
  2.896225e+01    1.346390e+04
  2.905379e+01    1.325990e+04
  2.914533e+01    1.296041e+04
  2.923687e+01    1.271482e+04
  2.932841e+01    1.250017e+04
  2.941995e+01    1.240485e+04
  2.951149e+01    1.302126e+04
  2.960304e+01    1.378085e+04
  2.969458e+01    1.208122e+04
  2.978612e+01    1.167154e+04
  2.987766e+01    1.149078e+04
  2.996920e+01    1.140885e+04
  3.006074e+01    1.136959e+04
  3.015228e+01    1.135039e+04
  3.024383e+01    1.134228e+04
  3.033537e+01    1.147304e+04
  3.042691e+01    1.191783e+04
  3.051845e+01    1.370989e+04
  3.060999e+01    2.469549e+04
  3.070153e+01    4.875899e+04
  3.079308e+01    2.631438e+04
  3.088462e+01    1.536250e+04
  3.097616e+01    1.794812e+04
  3.106770e+01    3.023602e+04
  3.115924e+01    1.528418e+04
  3.125078e+01    1.129000e+04
  3.134232e+01    1.060979e+04
  3.143387e+01    1.036317e+04
  3.152541e+01    1.020701e+04
  3.161695e+01    1.007743e+04
  3.170849e+01    9.997324e+03
  3.180003e+01    9.923429e+03
  3.189157e+01    9.876172e+03
  3.198311e+01    9.847148e+03
  3.207466e+01    9.833287e+03
  3.216620e+01    9.805303e+03
  3.225774e+01    9.717121e+03
  3.234928e+01    9.751451e+03
  3.244082e+01    1.086904e+04
  3.253236e+01    1.057091e+04
  3.262390e+01    9.578833e+03
  3.271545e+01    9.457829e+03
  3.280699e+01    9.415613e+03
  3.289853e+01    9.292633e+03
  3.299007e+01    9.145722e+03
  3.308161e+01    9.049703e+03
  3.317315e+01    8.994553e+03
  3.326469e+01    8.960410e+03
  3.335624e+01    8.931485e+03
  3.344778e+01    8.915904e+03
  3.353932e+01    8.920043e+03
  3.363086e+01    9.115546e+03
  3.372240e+01    1.048842e+04
  3.381394e+01    2.070214e+04
  3.390549e+01    1.625420e+04
  3.399703e+01    9.584954e+03
  3.408857e+01    8.766847e+03
  3.418011e+01    8.558740e+03
  3.427165e+01    8.456817e+03
  3.436319e+01    8.404229e+03
  3.445473e+01    8.363298e+03
  3.454628e+01    8.324409e+03
  3.463782e+01    8.306116e+03
  3.472936e+01    8.308917e+03
  3.482090e+01    8.321891e+03
  3.491244e+01    8.339054e+03
  3.500398e+01    8.296399e+03
  3.509552e+01    8.182319e+03
  3.518707e+01    8.050715e+03
  3.527861e+01    7.974722e+03
  3.537015e+01    7.883132e+03
  3.546169e+01    7.800332e+03
  3.555323e+01    7.762288e+03
  3.564477e+01    7.713857e+03
  3.573631e+01    7.698227e+03
  3.582786e+01    7.669522e+03
  3.591940e+01    7.676928e+03
  3.601094e+01    7.688199e+03
  3.610248e+01    7.714772e+03
  3.619402e+01    7.779086e+03
  3.628556e+01    8.061520e+03
  3.637710e+01    1.063882e+04
  3.646865e+01    1.245450e+04
  3.656019e+01    8.489069e+03
  3.665173e+01    7.902886e+03
  3.674327e+01    7.828808e+03
  3.683481e+01    7.828147e+03
  3.692635e+01    7.850493e+03
  3.701790e+01    7.885995e+03
  3.710944e+01    7.963304e+03
  3.720098e+01    8.084739e+03
  3.729252e+01    8.262203e+03
  3.738406e+01    8.696875e+03
  3.747560e+01    1.001879e+04
  3.756714e+01    1.942437e+04
  3.765869e+01    7.289121e+04
  3.775023e+01    3.473373e+04
  3.784177e+01    1.168889e+04
  3.793331e+01    9.139371e+03
  3.802485e+01    8.473402e+03
  3.811639e+01    8.219535e+03
  3.820793e+01    8.088094e+03
  3.829948e+01    8.025579e+03
  3.839102e+01    7.988398e+03
  3.848256e+01    7.969776e+03
  3.857410e+01    7.987052e+03
  3.866564e+01    8.008931e+03
  3.875718e+01    8.238154e+03
  3.884872e+01    1.014237e+04
  3.894027e+01    9.232909e+03
  3.903181e+01    8.034403e+03
  3.912335e+01    7.880037e+03
  3.921489e+01    7.824375e+03
  3.930643e+01    7.795373e+03
  3.939797e+01    7.788306e+03
  3.948951e+01    7.784817e+03
  3.958106e+01    7.773299e+03
  3.967260e+01    8.013729e+03
  3.976414e+01    7.664523e+03
  3.985568e+01    7.635944e+03
  3.994722e+01    7.721925e+03
  4.003876e+01    8.223147e+03
  4.013031e+01    7.781865e+03
  4.022185e+01    7.557049e+03
  4.031339e+01    7.508166e+03
  4.040493e+01    7.492601e+03
  4.049647e+01    7.473371e+03
  4.058801e+01    7.456018e+03
  4.067955e+01    7.454370e+03
  4.077110e+01    7.465005e+03
  4.086264e+01    7.493821e+03
  4.095418e+01    7.576344e+03
  4.104572e+01    7.945226e+03
  4.113726e+01    1.170029e+04
  4.122880e+01    1.322845e+04
  4.132034e+01    8.354753e+03
  4.141189e+01    7.717338e+03
  4.150343e+01    7.591117e+03
  4.159497e+01    7.519825e+03
  4.168651e+01    7.480829e+03
  4.177805e+01    7.450528e+03
  4.186959e+01    7.451707e+03
  4.196113e+01    7.503521e+03
  4.205268e+01    7.671395e+03
  4.214422e+01    7.663981e+03
  4.223576e+01    8.139989e+03
  4.232730e+01    8.885332e+03
  4.241884e+01    7.616681e+03
  4.251038e+01    7.344003e+03
  4.260192e+01    7.273401e+03
  4.269347e+01    7.251183e+03
  4.278501e+01    7.236684e+03
  4.287655e+01    7.227774e+03
  4.296809e+01    7.242417e+03
  4.305963e+01    7.263828e+03
  4.315117e+01    7.365559e+03
  4.324272e+01    7.597266e+03
  4.333426e+01    1.000220e+04
  4.342580e+01    1.279188e+04
  4.351734e+01    8.314381e+03
  4.360888e+01    7.659313e+03
  4.370042e+01    7.886648e+03
  4.379196e+01    9.218697e+03
  4.388351e+01    1.726004e+04
  4.397505e+01    2.168798e+04
  4.406659e+01    1.181597e+04
  4.415813e+01    8.721067e+03
  4.424967e+01    8.336718e+03
  4.434121e+01    1.006725e+04
  4.443275e+01    2.670821e+04
  4.452430e+01    2.378618e+04
  4.461584e+01    9.460438e+03
  4.470738e+01    7.733680e+03
  4.479892e+01    7.365905e+03
  4.489046e+01    7.222396e+03
  4.498200e+01    7.158892e+03
  4.507354e+01    7.125955e+03
  4.516509e+01    7.121143e+03
  4.525663e+01    7.171044e+03
  4.534817e+01    7.389020e+03
  4.543971e+01    9.331321e+03
  4.553125e+01    1.413056e+04
  4.562279e+01    8.703056e+03
  4.571433e+01    7.320448e+03
  4.580588e+01    7.154915e+03
  4.589742e+01    7.134204e+03
  4.598896e+01    7.146672e+03
  4.608050e+01    7.152400e+03
  4.617204e+01    7.101976e+03
  4.626358e+01    7.039550e+03
  4.635513e+01    7.016570e+03
  4.644667e+01    7.360512e+03
  4.653821e+01    9.140534e+03
  4.662975e+01    7.926377e+03
  4.672129e+01    7.238152e+03
  4.681283e+01    7.189034e+03
  4.690437e+01    7.163086e+03
  4.699592e+01    7.141957e+03
  4.708746e+01    7.155069e+03
  4.717900e+01    7.177676e+03
  4.727054e+01    7.248487e+03
  4.736208e+01    7.365937e+03
  4.745362e+01    7.735381e+03
  4.754516e+01    9.200840e+03
  4.763671e+01    8.598913e+03
  4.772825e+01    7.923482e+03
  4.781979e+01    7.492054e+03
  4.788844e+01    3.011566e+03