File: Output/ROCK_XRD/WAM39B_integrated/rampe3/wam39b_rampe_3_xrd_000010_integrated.dat
# == pyFAI calibration ==
# Distance Sample to Detector: 0.261615 m
# PONI: 2.023e-01, 2.348e-01 m
# Rotations: -0.026380 0.002005 0.000000 rad
#
# == Fit2d calibration ==
# Distance Sample-beamCenter: 261.707 mm
# Center: x=6119.331, y=5134.776 pix
# Tilt: 1.516 deg  TiltPlanRot: 4.347 deg
#
# Detector Rayonix SX165	 PixelSize= 3.950e-05, 3.950e-05 m
#    Detector has a mask: True
#    Detector has a dark current: False
#    detector has a flat field: False
#
# Wavelength: 1.12713e-10 m
# Mask applied: from detector
# Dark current applied: False
# Flat field applied: False
# Polarization factor: None
# Normalization factor: 1.0
# --> ROCK\\WAM39B_integrated\wam39b_rampe_3_xrd_000010_integrated.dat
#       2th_deg             I
  2.502596e+01    5.056729e+03
  2.511750e+01    2.066070e+04
  2.520905e+01    2.095770e+04
  2.530059e+01    2.102647e+04
  2.539213e+01    2.045949e+04
  2.548367e+01    2.034664e+04
  2.557521e+01    2.034524e+04
  2.566675e+01    2.062232e+04
  2.575829e+01    2.106170e+04
  2.584984e+01    2.125730e+04
  2.594138e+01    2.104316e+04
  2.603292e+01    2.067948e+04
  2.612446e+01    2.030317e+04
  2.621600e+01    2.010642e+04
  2.630754e+01    2.060737e+04
  2.639908e+01    2.387085e+04
  2.649063e+01    3.436187e+04
  2.658217e+01    3.377526e+04
  2.667371e+01    4.644030e+04
  2.676525e+01    2.789972e+04
  2.685679e+01    2.009137e+04
  2.694833e+01    1.832642e+04
  2.703988e+01    1.770833e+04
  2.713142e+01    1.738067e+04
  2.722296e+01    1.707085e+04
  2.731450e+01    1.687175e+04
  2.740604e+01    1.664819e+04
  2.749758e+01    1.651531e+04
  2.758912e+01    1.641684e+04
  2.768067e+01    1.632798e+04
  2.777221e+01    1.629454e+04
  2.786375e+01    1.643242e+04
  2.795529e+01    1.675021e+04
  2.804683e+01    1.835900e+04
  2.813837e+01    2.259993e+04
  2.822991e+01    1.834379e+04
  2.832146e+01    1.632229e+04
  2.841300e+01    1.549807e+04
  2.850454e+01    1.499784e+04
  2.859608e+01    1.464555e+04
  2.868762e+01    1.434533e+04
  2.877916e+01    1.410401e+04
  2.887070e+01    1.390031e+04
  2.896225e+01    1.373489e+04
  2.905379e+01    1.364459e+04
  2.914533e+01    1.358931e+04
  2.923687e+01    1.342907e+04
  2.932841e+01    1.313614e+04
  2.941995e+01    1.287350e+04
  2.951149e+01    1.269820e+04
  2.960304e+01    1.300742e+04
  2.969458e+01    1.442473e+04
  2.978612e+01    1.270238e+04
  2.987766e+01    1.202242e+04
  2.996920e+01    1.184095e+04
  3.006074e+01    1.173362e+04
  3.015228e+01    1.167444e+04
  3.024383e+01    1.161694e+04
  3.033537e+01    1.160886e+04
  3.042691e+01    1.164750e+04
  3.051845e+01    1.178990e+04
  3.060999e+01    1.224597e+04
  3.070153e+01    1.411079e+04
  3.079308e+01    2.340076e+04
  3.088462e+01    4.599010e+04
  3.097616e+01    3.189092e+04
  3.106770e+01    1.948429e+04
  3.115924e+01    3.068421e+04
  3.125078e+01    2.078432e+04
  3.134232e+01    1.234032e+04
  3.143387e+01    1.113768e+04
  3.152541e+01    1.075031e+04
  3.161695e+01    1.055320e+04
  3.170849e+01    1.042073e+04
  3.180003e+01    1.031414e+04
  3.189157e+01    1.023926e+04
  3.198311e+01    1.017532e+04
  3.207466e+01    1.012473e+04
  3.216620e+01    1.011638e+04
  3.225774e+01    1.010346e+04
  3.234928e+01    1.003091e+04
  3.244082e+01    9.988663e+03
  3.253236e+01    1.052509e+04
  3.262390e+01    1.158957e+04
  3.271545e+01    1.006865e+04
  3.280699e+01    9.747742e+03
  3.289853e+01    9.704630e+03
  3.299007e+01    9.620767e+03
  3.308161e+01    9.458624e+03
  3.317315e+01    9.324743e+03
  3.326469e+01    9.256058e+03
  3.335624e+01    9.211161e+03
  3.344778e+01    9.181960e+03
  3.353932e+01    9.147488e+03
  3.363086e+01    9.142125e+03
  3.372240e+01    9.226222e+03
  3.381394e+01    9.750778e+03
  3.390549e+01    1.488085e+04
  3.399703e+01    2.304862e+04
  3.408857e+01    1.154955e+04
  3.418011e+01    9.230679e+03
  3.427165e+01    8.860403e+03
  3.436319e+01    8.710448e+03
  3.445473e+01    8.622808e+03
  3.454628e+01    8.581175e+03
  3.463782e+01    8.551948e+03
  3.472936e+01    8.543337e+03
  3.482090e+01    8.532452e+03
  3.491244e+01    8.555216e+03
  3.500398e+01    8.581425e+03
  3.509552e+01    8.565100e+03
  3.518707e+01    8.444462e+03
  3.527861e+01    8.306906e+03
  3.537015e+01    8.184118e+03
  3.546169e+01    8.079724e+03
  3.555323e+01    8.004764e+03
  3.564477e+01    7.955199e+03
  3.573631e+01    7.917204e+03
  3.582786e+01    7.888801e+03
  3.591940e+01    7.896569e+03
  3.601094e+01    7.898827e+03
  3.610248e+01    7.894977e+03
  3.619402e+01    7.918750e+03
  3.628556e+01    7.950021e+03
  3.637710e+01    8.069596e+03
  3.646865e+01    8.792608e+03
  3.656019e+01    1.349876e+04
  3.665173e+01    1.067476e+04
  3.674327e+01    8.314843e+03
  3.683481e+01    8.073831e+03
  3.692635e+01    8.026029e+03
  3.701790e+01    8.032159e+03
  3.710944e+01    8.063477e+03
  3.720098e+01    8.103886e+03
  3.729252e+01    8.190316e+03
  3.738406e+01    8.313513e+03
  3.747560e+01    8.574738e+03
  3.756714e+01    9.214780e+03
  3.765869e+01    1.170333e+04
  3.775023e+01    3.515398e+04
  3.784177e+01    7.517517e+04
  3.793331e+01    2.144158e+04
  3.802485e+01    1.054331e+04
  3.811639e+01    9.024116e+03
  3.820793e+01    8.536453e+03
  3.829948e+01    8.333459e+03
  3.839102e+01    8.224849e+03
  3.848256e+01    8.178042e+03
  3.857410e+01    8.169815e+03
  3.866564e+01    8.161776e+03
  3.875718e+01    8.158729e+03
  3.884872e+01    8.211173e+03
  3.894027e+01    8.774255e+03
  3.903181e+01    1.089100e+04
  3.912335e+01    8.833739e+03
  3.921489e+01    8.117290e+03
  3.930643e+01    8.000343e+03
  3.939797e+01    7.956492e+03
  3.948951e+01    7.912348e+03
  3.958106e+01    7.901996e+03
  3.967260e+01    7.902419e+03
  3.976414e+01    7.877226e+03
  3.985568e+01    7.847690e+03
  3.994722e+01    7.791944e+03
  4.003876e+01    7.761311e+03
  4.013031e+01    7.960200e+03
  4.022185e+01    8.404647e+03
  4.031339e+01    7.816441e+03
  4.040493e+01    7.651939e+03
  4.049647e+01    7.611912e+03
  4.058801e+01    7.592314e+03
  4.067955e+01    7.576123e+03
  4.077110e+01    7.567875e+03
  4.086264e+01    7.567521e+03
  4.095418e+01    7.576234e+03
  4.104572e+01    7.610051e+03
  4.113726e+01    7.724946e+03
  4.122880e+01    8.340565e+03
  4.132034e+01    1.372986e+04
  4.141189e+01    1.233380e+04
  4.150343e+01    8.242868e+03
  4.159497e+01    7.808310e+03
  4.168651e+01    7.755839e+03
  4.177805e+01    7.701906e+03
  4.186959e+01    7.646863e+03
  4.196113e+01    7.602763e+03
  4.205268e+01    7.594153e+03
  4.214422e+01    7.644338e+03
  4.223576e+01    7.731947e+03
  4.232730e+01    7.845396e+03
  4.241884e+01    8.591324e+03
  4.251038e+01    8.997327e+03
  4.260192e+01    7.664633e+03
  4.269347e+01    7.437100e+03
  4.278501e+01    7.363395e+03
  4.287655e+01    7.329724e+03
  4.296809e+01    7.328599e+03
  4.305963e+01    7.321260e+03
  4.315117e+01    7.331603e+03
  4.324272e+01    7.365509e+03
  4.333426e+01    7.467802e+03
  4.342580e+01    7.786096e+03
  4.351734e+01    1.086611e+04
  4.360888e+01    1.279501e+04
  4.370042e+01    8.273158e+03
  4.379196e+01    7.657712e+03
  4.388351e+01    7.724884e+03
  4.397505e+01    8.085167e+03
  4.406659e+01    9.435894e+03
  4.415813e+01    1.566243e+04
  4.424967e+01    2.351241e+04
  4.434121e+01    1.401461e+04
  4.443275e+01    9.793118e+03
  4.452430e+01    1.095427e+04
  4.461584e+01    2.927034e+04
  4.470738e+01    2.405479e+04
  4.479892e+01    9.680566e+03
  4.489046e+01    7.884518e+03
  4.498200e+01    7.504076e+03
  4.507354e+01    7.340695e+03
  4.516509e+01    7.272834e+03
  4.525663e+01    7.236583e+03
  4.534817e+01    7.230681e+03
  4.543971e+01    7.257809e+03
  4.553125e+01    7.507300e+03
  4.562279e+01    9.561705e+03
  4.571433e+01    1.484149e+04
  4.580588e+01    9.074167e+03
  4.589742e+01    7.445342e+03
  4.598896e+01    7.247991e+03
  4.608050e+01    7.208309e+03
  4.617204e+01    7.259138e+03
  4.626358e+01    7.289617e+03
  4.635513e+01    7.248859e+03
  4.644667e+01    7.155425e+03
  4.653821e+01    7.168134e+03
  4.662975e+01    7.478778e+03
  4.672129e+01    9.334975e+03
  4.681283e+01    8.276970e+03
  4.690437e+01    7.458999e+03
  4.699592e+01    7.409788e+03
  4.708746e+01    7.460994e+03
  4.717900e+01    7.429523e+03
  4.727054e+01    7.444151e+03
  4.736208e+01    7.515767e+03
  4.745362e+01    7.655909e+03
  4.754516e+01    7.952503e+03
  4.763671e+01    8.402008e+03
  4.772825e+01    9.463513e+03
  4.781979e+01    8.330738e+03
  4.788844e+01    3.134794e+03