File: Output/ROCK_XRD/WAM39B_integrated/rampe3/wam39b_rampe_3_xrd_000007_integrated.dat
# == pyFAI calibration ==
# Distance Sample to Detector: 0.261615 m
# PONI: 2.023e-01, 2.348e-01 m
# Rotations: -0.026380 0.002005 0.000000 rad
#
# == Fit2d calibration ==
# Distance Sample-beamCenter: 261.707 mm
# Center: x=6119.331, y=5134.776 pix
# Tilt: 1.516 deg  TiltPlanRot: 4.347 deg
#
# Detector Rayonix SX165	 PixelSize= 3.950e-05, 3.950e-05 m
#    Detector has a mask: True
#    Detector has a dark current: False
#    detector has a flat field: False
#
# Wavelength: 1.12713e-10 m
# Mask applied: from detector
# Dark current applied: False
# Flat field applied: False
# Polarization factor: None
# Normalization factor: 1.0
# --> ROCK\\WAM39B_integrated\wam39b_rampe_3_xrd_000007_integrated.dat
#       2th_deg             I
  2.502596e+01    4.414290e+03
  2.511750e+01    1.817649e+04
  2.520905e+01    1.847248e+04
  2.530059e+01    1.852375e+04
  2.539213e+01    1.801764e+04
  2.548367e+01    1.798149e+04
  2.557521e+01    1.808074e+04
  2.566675e+01    1.850838e+04
  2.575829e+01    1.881530e+04
  2.584984e+01    1.875523e+04
  2.594138e+01    1.841161e+04
  2.603292e+01    1.811658e+04
  2.612446e+01    1.776415e+04
  2.621600e+01    1.787454e+04
  2.630754e+01    1.921959e+04
  2.639908e+01    2.652316e+04
  2.649063e+01    3.174017e+04
  2.658217e+01    4.167240e+04
  2.667371e+01    2.918636e+04
  2.676525e+01    1.885415e+04
  2.685679e+01    1.656669e+04
  2.694833e+01    1.584076e+04
  2.703988e+01    1.546932e+04
  2.713142e+01    1.523853e+04
  2.722296e+01    1.500971e+04
  2.731450e+01    1.483865e+04
  2.740604e+01    1.466091e+04
  2.749758e+01    1.455550e+04
  2.758912e+01    1.448272e+04
  2.768067e+01    1.445658e+04
  2.777221e+01    1.449873e+04
  2.786375e+01    1.471404e+04
  2.795529e+01    1.545082e+04
  2.804683e+01    1.883460e+04
  2.813837e+01    1.822686e+04
  2.822991e+01    1.492048e+04
  2.832146e+01    1.396177e+04
  2.841300e+01    1.342806e+04
  2.850454e+01    1.307817e+04
  2.859608e+01    1.282941e+04
  2.868762e+01    1.260228e+04
  2.877916e+01    1.242910e+04
  2.887070e+01    1.228758e+04
  2.896225e+01    1.219920e+04
  2.905379e+01    1.215105e+04
  2.914533e+01    1.201111e+04
  2.923687e+01    1.175781e+04
  2.932841e+01    1.151370e+04
  2.941995e+01    1.132894e+04
  2.951149e+01    1.131837e+04
  2.960304e+01    1.239667e+04
  2.969458e+01    1.200671e+04
  2.978612e+01    1.080203e+04
  2.987766e+01    1.054583e+04
  2.996920e+01    1.043172e+04
  3.006074e+01    1.038041e+04
  3.015228e+01    1.034407e+04
  3.024383e+01    1.030469e+04
  3.033537e+01    1.030994e+04
  3.042691e+01    1.041800e+04
  3.051845e+01    1.073818e+04
  3.060999e+01    1.193016e+04
  3.070153e+01    1.838778e+04
  3.079308e+01    4.090370e+04
  3.088462e+01    3.105116e+04
  3.097616e+01    1.658471e+04
  3.106770e+01    2.106714e+04
  3.115924e+01    2.508297e+04
  3.125078e+01    1.226625e+04
  3.134232e+01    1.009418e+04
  3.143387e+01    9.634997e+03
  3.152541e+01    9.419964e+03
  3.161695e+01    9.275123e+03
  3.170849e+01    9.173768e+03
  3.180003e+01    9.096197e+03
  3.189157e+01    9.035204e+03
  3.198311e+01    9.010474e+03
  3.207466e+01    8.985396e+03
  3.216620e+01    8.974528e+03
  3.225774e+01    8.932904e+03
  3.234928e+01    8.857107e+03
  3.244082e+01    9.015582e+03
  3.253236e+01    1.030362e+04
  3.262390e+01    9.319444e+03
  3.271545e+01    8.690642e+03
  3.280699e+01    8.623095e+03
  3.289853e+01    8.581094e+03
  3.299007e+01    8.454354e+03
  3.308161e+01    8.316981e+03
  3.317315e+01    8.249883e+03
  3.326469e+01    8.185398e+03
  3.335624e+01    8.161881e+03
  3.344778e+01    8.139447e+03
  3.353932e+01    8.122545e+03
  3.363086e+01    8.165029e+03
  3.372240e+01    8.424673e+03
  3.381394e+01    1.054043e+04
  3.390549e+01    2.110815e+04
  3.399703e+01    1.274913e+04
  3.408857e+01    8.489442e+03
  3.418011e+01    7.934925e+03
  3.427165e+01    7.785004e+03
  3.436319e+01    7.699990e+03
  3.445473e+01    7.641594e+03
  3.454628e+01    7.616904e+03
  3.463782e+01    7.590628e+03
  3.472936e+01    7.581217e+03
  3.482090e+01    7.583218e+03
  3.491244e+01    7.604372e+03
  3.500398e+01    7.616955e+03
  3.509552e+01    7.560230e+03
  3.518707e+01    7.433946e+03
  3.527861e+01    7.327706e+03
  3.537015e+01    7.228253e+03
  3.546169e+01    7.149914e+03
  3.555323e+01    7.099638e+03
  3.564477e+01    7.051939e+03
  3.573631e+01    7.033837e+03
  3.582786e+01    7.011921e+03
  3.591940e+01    7.013669e+03
  3.601094e+01    7.012584e+03
  3.610248e+01    7.025692e+03
  3.619402e+01    7.052589e+03
  3.628556e+01    7.129417e+03
  3.637710e+01    7.480445e+03
  3.646865e+01    1.064530e+04
  3.656019e+01    1.088603e+04
  3.665173e+01    7.601520e+03
  3.674327e+01    7.206083e+03
  3.683481e+01    7.141053e+03
  3.692635e+01    7.148165e+03
  3.701790e+01    7.160968e+03
  3.710944e+01    7.198879e+03
  3.720098e+01    7.266834e+03
  3.729252e+01    7.383578e+03
  3.738406e+01    7.563849e+03
  3.747560e+01    8.004856e+03
  3.756714e+01    9.491912e+03
  3.765869e+01    2.123862e+04
  3.775023e+01    7.067184e+04
  3.784177e+01    2.749930e+04
  3.793331e+01    1.028388e+04
  3.802485e+01    8.222175e+03
  3.811639e+01    7.692458e+03
  3.820793e+01    7.460169e+03
  3.829948e+01    7.355400e+03
  3.839102e+01    7.293576e+03
  3.848256e+01    7.268808e+03
  3.857410e+01    7.282353e+03
  3.866564e+01    7.270633e+03
  3.875718e+01    7.296485e+03
  3.884872e+01    7.576928e+03
  3.894027e+01    9.521546e+03
  3.903181e+01    8.304291e+03
  3.912335e+01    7.289394e+03
  3.921489e+01    7.146808e+03
  3.930643e+01    7.096064e+03
  3.939797e+01    7.074959e+03
  3.948951e+01    7.059642e+03
  3.958106e+01    7.065231e+03
  3.967260e+01    7.041952e+03
  3.976414e+01    6.998655e+03
  3.985568e+01    6.959128e+03
  3.994722e+01    6.930339e+03
  4.003876e+01    7.019044e+03
  4.013031e+01    7.521520e+03
  4.022185e+01    7.044423e+03
  4.031339e+01    6.849045e+03
  4.040493e+01    6.807228e+03
  4.049647e+01    6.784906e+03
  4.058801e+01    6.769190e+03
  4.067955e+01    6.754778e+03
  4.077110e+01    6.759596e+03
  4.086264e+01    6.764886e+03
  4.095418e+01    6.799365e+03
  4.104572e+01    6.876733e+03
  4.113726e+01    7.249815e+03
  4.122880e+01    1.102043e+04
  4.132034e+01    1.213658e+04
  4.141189e+01    7.591911e+03
  4.150343e+01    7.010562e+03
  4.159497e+01    6.929004e+03
  4.168651e+01    6.885604e+03
  4.177805e+01    6.824438e+03
  4.186959e+01    6.776368e+03
  4.196113e+01    6.773082e+03
  4.205268e+01    6.815682e+03
  4.214422e+01    6.900990e+03
  4.223576e+01    6.990425e+03
  4.232730e+01    7.465238e+03
  4.241884e+01    8.198670e+03
  4.251038e+01    6.939407e+03
  4.260192e+01    6.663463e+03
  4.269347e+01    6.604982e+03
  4.278501e+01    6.562801e+03
  4.287655e+01    6.549869e+03
  4.296809e+01    6.562690e+03
  4.305963e+01    6.559686e+03
  4.315117e+01    6.591900e+03
  4.324272e+01    6.669626e+03
  4.333426e+01    6.892832e+03
  4.342580e+01    9.033016e+03
  4.351734e+01    1.196925e+04
  4.360888e+01    7.631466e+03
  4.370042e+01    6.895153e+03
  4.379196e+01    6.940013e+03
  4.388351e+01    7.349307e+03
  4.397505e+01    9.065462e+03
  4.406659e+01    1.710274e+04
  4.415813e+01    1.937899e+04
  4.424967e+01    1.069120e+04
  4.434121e+01    8.252993e+03
  4.443275e+01    9.239511e+03
  4.452430e+01    2.376891e+04
  4.461584e+01    2.380968e+04
  4.470738e+01    9.028023e+03
  4.479892e+01    7.120530e+03
  4.489046e+01    6.712599e+03
  4.498200e+01    6.582029e+03
  4.507354e+01    6.511822e+03
  4.516509e+01    6.468677e+03
  4.525663e+01    6.467775e+03
  4.534817e+01    6.509602e+03
  4.543971e+01    6.669832e+03
  4.553125e+01    8.227302e+03
  4.562279e+01    1.332043e+04
  4.571433e+01    8.399033e+03
  4.580588e+01    6.704029e+03
  4.589742e+01    6.488568e+03
  4.598896e+01    6.463598e+03
  4.608050e+01    6.480894e+03
  4.617204e+01    6.523275e+03
  4.626358e+01    6.485351e+03
  4.635513e+01    6.407779e+03
  4.644667e+01    6.380331e+03
  4.653821e+01    6.640172e+03
  4.662975e+01    8.266856e+03
  4.672129e+01    7.468549e+03
  4.681283e+01    6.642937e+03
  4.690437e+01    6.583083e+03
  4.699592e+01    6.598252e+03
  4.708746e+01    6.579604e+03
  4.717900e+01    6.590165e+03
  4.727054e+01    6.614520e+03
  4.736208e+01    6.688661e+03
  4.745362e+01    6.836804e+03
  4.754516e+01    7.244055e+03
  4.763671e+01    8.547873e+03
  4.772825e+01    7.848313e+03
  4.781979e+01    6.878742e+03
  4.788844e+01    2.746182e+03