File: Output/ROCK_XRD/WAM39B_integrated/rampe3/wam39b_rampe_3_xrd_000003_integrated.dat
# == pyFAI calibration ==
# Distance Sample to Detector: 0.261615 m
# PONI: 2.023e-01, 2.348e-01 m
# Rotations: -0.026380 0.002005 0.000000 rad
#
# == Fit2d calibration ==
# Distance Sample-beamCenter: 261.707 mm
# Center: x=6119.331, y=5134.776 pix
# Tilt: 1.516 deg  TiltPlanRot: 4.347 deg
#
# Detector Rayonix SX165	 PixelSize= 3.950e-05, 3.950e-05 m
#    Detector has a mask: True
#    Detector has a dark current: False
#    detector has a flat field: False
#
# Wavelength: 1.12713e-10 m
# Mask applied: from detector
# Dark current applied: False
# Flat field applied: False
# Polarization factor: None
# Normalization factor: 1.0
# --> ROCK\\WAM39B_integrated\wam39b_rampe_3_xrd_000003_integrated.dat
#       2th_deg             I
  2.502596e+01    4.698379e+03
  2.511750e+01    1.930168e+04
  2.520905e+01    1.958112e+04
  2.530059e+01    1.968101e+04
  2.539213e+01    1.916081e+04
  2.548367e+01    1.920117e+04
  2.557521e+01    1.948521e+04
  2.566675e+01    1.999442e+04
  2.575829e+01    2.014612e+04
  2.584984e+01    1.979865e+04
  2.594138e+01    1.937072e+04
  2.603292e+01    1.899504e+04
  2.612446e+01    1.885566e+04
  2.621600e+01    1.964253e+04
  2.630754e+01    2.398755e+04
  2.639908e+01    3.673611e+04
  2.649063e+01    4.628455e+04
  2.658217e+01    3.230991e+04
  2.667371e+01    2.061003e+04
  2.676525e+01    1.790550e+04
  2.685679e+01    1.705630e+04
  2.694833e+01    1.661794e+04
  2.703988e+01    1.633633e+04
  2.713142e+01    1.613051e+04
  2.722296e+01    1.590648e+04
  2.731450e+01    1.574188e+04
  2.740604e+01    1.557153e+04
  2.749758e+01    1.549095e+04
  2.758912e+01    1.545987e+04
  2.768067e+01    1.548815e+04
  2.777221e+01    1.564224e+04
  2.786375e+01    1.615731e+04
  2.795529e+01    1.820922e+04
  2.804683e+01    2.114913e+04
  2.813837e+01    1.665441e+04
  2.822991e+01    1.509366e+04
  2.832146e+01    1.449079e+04
  2.841300e+01    1.408027e+04
  2.850454e+01    1.380114e+04
  2.859608e+01    1.356845e+04
  2.868762e+01    1.335422e+04
  2.877916e+01    1.320986e+04
  2.887070e+01    1.312921e+04
  2.896225e+01    1.307886e+04
  2.905379e+01    1.291647e+04
  2.914533e+01    1.262100e+04
  2.923687e+01    1.237188e+04
  2.932841e+01    1.215875e+04
  2.941995e+01    1.205820e+04
  2.951149e+01    1.257902e+04
  2.960304e+01    1.347909e+04
  2.969458e+01    1.179582e+04
  2.978612e+01    1.133717e+04
  2.987766e+01    1.116395e+04
  2.996920e+01    1.108083e+04
  3.006074e+01    1.103410e+04
  3.015228e+01    1.102272e+04
  3.024383e+01    1.101796e+04
  3.033537e+01    1.111097e+04
  3.042691e+01    1.147882e+04
  3.051845e+01    1.282038e+04
  3.060999e+01    2.087849e+04
  3.070153e+01    4.637943e+04
  3.079308e+01    2.932224e+04
  3.088462e+01    1.580354e+04
  3.097616e+01    1.709404e+04
  3.106770e+01    2.969204e+04
  3.115924e+01    1.543827e+04
  3.125078e+01    1.104650e+04
  3.134232e+01    1.033419e+04
  3.143387e+01    1.007768e+04
  3.152541e+01    9.925064e+03
  3.161695e+01    9.809195e+03
  3.170849e+01    9.723180e+03
  3.180003e+01    9.652868e+03
  3.189157e+01    9.593821e+03
  3.198311e+01    9.578770e+03
  3.207466e+01    9.561404e+03
  3.216620e+01    9.533270e+03
  3.225774e+01    9.457181e+03
  3.234928e+01    9.473018e+03
  3.244082e+01    1.048603e+04
  3.253236e+01    1.038338e+04
  3.262390e+01    9.332535e+03
  3.271545e+01    9.203397e+03
  3.280699e+01    9.156399e+03
  3.289853e+01    9.037904e+03
  3.299007e+01    8.890212e+03
  3.308161e+01    8.808524e+03
  3.317315e+01    8.746731e+03
  3.326469e+01    8.703622e+03
  3.335624e+01    8.678607e+03
  3.344778e+01    8.650446e+03
  3.353932e+01    8.674247e+03
  3.363086e+01    8.837172e+03
  3.372240e+01    1.001583e+04
  3.381394e+01    1.946276e+04
  3.390549e+01    1.664229e+04
  3.399703e+01    9.438592e+03
  3.408857e+01    8.542602e+03
  3.418011e+01    8.318166e+03
  3.427165e+01    8.230821e+03
  3.436319e+01    8.172831e+03
  3.445473e+01    8.126286e+03
  3.454628e+01    8.094301e+03
  3.463782e+01    8.071771e+03
  3.472936e+01    8.074526e+03
  3.482090e+01    8.091907e+03
  3.491244e+01    8.112271e+03
  3.500398e+01    8.070330e+03
  3.509552e+01    7.961609e+03
  3.518707e+01    7.833917e+03
  3.527861e+01    7.748155e+03
  3.537015e+01    7.655833e+03
  3.546169e+01    7.591579e+03
  3.555323e+01    7.537335e+03
  3.564477e+01    7.493093e+03
  3.573631e+01    7.478095e+03
  3.582786e+01    7.456488e+03
  3.591940e+01    7.456998e+03
  3.601094e+01    7.472876e+03
  3.610248e+01    7.493861e+03
  3.619402e+01    7.556961e+03
  3.628556e+01    7.802489e+03
  3.637710e+01    1.003866e+04
  3.646865e+01    1.240413e+04
  3.656019e+01    8.361177e+03
  3.665173e+01    7.691004e+03
  3.674327e+01    7.612047e+03
  3.683481e+01    7.607250e+03
  3.692635e+01    7.627601e+03
  3.701790e+01    7.663967e+03
  3.710944e+01    7.726792e+03
  3.720098e+01    7.839785e+03
  3.729252e+01    8.000464e+03
  3.738406e+01    8.395502e+03
  3.747560e+01    9.580203e+03
  3.756714e+01    1.746774e+04
  3.765869e+01    6.874316e+04
  3.775023e+01    3.757716e+04
  3.784177e+01    1.179012e+04
  3.793331e+01    8.953657e+03
  3.802485e+01    8.250325e+03
  3.811639e+01    7.999471e+03
  3.820793e+01    7.855678e+03
  3.829948e+01    7.796415e+03
  3.839102e+01    7.754742e+03
  3.848256e+01    7.745884e+03
  3.857410e+01    7.754563e+03
  3.866564e+01    7.769420e+03
  3.875718e+01    7.971933e+03
  3.884872e+01    9.723502e+03
  3.894027e+01    9.140604e+03
  3.903181e+01    7.834145e+03
  3.912335e+01    7.645520e+03
  3.921489e+01    7.592271e+03
  3.930643e+01    7.564757e+03
  3.939797e+01    7.562732e+03
  3.948951e+01    7.557346e+03
  3.958106e+01    7.540387e+03
  3.967260e+01    7.506965e+03
  3.976414e+01    7.441923e+03
  3.985568e+01    7.405344e+03
  3.994722e+01    7.477860e+03
  4.003876e+01    7.961933e+03
  4.013031e+01    7.595447e+03
  4.022185e+01    7.330649e+03
  4.031339e+01    7.281226e+03
  4.040493e+01    7.264625e+03
  4.049647e+01    7.249270e+03
  4.058801e+01    7.229183e+03
  4.067955e+01    7.228307e+03
  4.077110e+01    7.244667e+03
  4.086264e+01    7.266991e+03
  4.095418e+01    7.343387e+03
  4.104572e+01    7.661285e+03
  4.113726e+01    1.088360e+04
  4.122880e+01    1.331946e+04
  4.132034e+01    8.257626e+03
  4.141189e+01    7.515627e+03
  4.150343e+01    7.383720e+03
  4.159497e+01    7.314976e+03
  4.168651e+01    7.273709e+03
  4.177805e+01    7.239557e+03
  4.186959e+01    7.228785e+03
  4.196113e+01    7.280157e+03
  4.205268e+01    7.352706e+03
  4.214422e+01    7.437319e+03
  4.223576e+01    7.827050e+03
  4.232730e+01    8.699806e+03
  4.241884e+01    7.446614e+03
  4.251038e+01    7.143747e+03
  4.260192e+01    7.063581e+03
  4.269347e+01    7.033902e+03
  4.278501e+01    7.020639e+03
  4.287655e+01    7.003693e+03
  4.296809e+01    7.025588e+03
  4.305963e+01    7.047857e+03
  4.315117e+01    7.140697e+03
  4.324272e+01    7.341199e+03
  4.333426e+01    9.342451e+03
  4.342580e+01    1.272285e+04
  4.351734e+01    8.242444e+03
  4.360888e+01    7.422018e+03
  4.370042e+01    7.569549e+03
  4.379196e+01    8.441266e+03
  4.388351e+01    1.400741e+04
  4.397505e+01    2.235438e+04
  4.406659e+01    1.323535e+04
  4.415813e+01    8.888196e+03
  4.424967e+01    8.170295e+03
  4.434121e+01    9.525906e+03
  4.443275e+01    2.417327e+04
  4.452430e+01    2.509358e+04
  4.461584e+01    9.583170e+03
  4.470738e+01    7.560597e+03
  4.479892e+01    7.171398e+03
  4.489046e+01    7.012942e+03
  4.498200e+01    6.952925e+03
  4.507354e+01    6.922976e+03
  4.516509e+01    6.918521e+03
  4.525663e+01    6.952185e+03
  4.534817e+01    7.140475e+03
  4.543971e+01    8.727079e+03
  4.553125e+01    1.389915e+04
  4.562279e+01    8.799566e+03
  4.571433e+01    7.139615e+03
  4.580588e+01    6.946749e+03
  4.589742e+01    6.925010e+03
  4.598896e+01    6.938826e+03
  4.608050e+01    6.940066e+03
  4.617204e+01    6.902727e+03
  4.626358e+01    6.828832e+03
  4.635513e+01    6.803360e+03
  4.644667e+01    7.070787e+03
  4.653821e+01    8.793003e+03
  4.662975e+01    7.846959e+03
  4.672129e+01    7.026903e+03
  4.681283e+01    6.975186e+03
  4.690437e+01    6.957883e+03
  4.699592e+01    6.946937e+03
  4.708746e+01    6.956976e+03
  4.717900e+01    6.972120e+03
  4.727054e+01    7.035219e+03
  4.736208e+01    7.147491e+03
  4.745362e+01    7.457980e+03
  4.754516e+01    8.863750e+03
  4.763671e+01    8.471513e+03
  4.772825e+01    7.717958e+03
  4.781979e+01    7.267885e+03
  4.788844e+01    2.920591e+03