File: Output/ROCK_XRD/WAM39B_integrated/rampe3/wam39b_rampe_3_xrd_000013_integrated.dat
# == pyFAI calibration ==
# Distance Sample to Detector: 0.261615 m
# PONI: 2.023e-01, 2.348e-01 m
# Rotations: -0.026380 0.002005 0.000000 rad
#
# == Fit2d calibration ==
# Distance Sample-beamCenter: 261.707 mm
# Center: x=6119.331, y=5134.776 pix
# Tilt: 1.516 deg  TiltPlanRot: 4.347 deg
#
# Detector Rayonix SX165	 PixelSize= 3.950e-05, 3.950e-05 m
#    Detector has a mask: True
#    Detector has a dark current: False
#    detector has a flat field: False
#
# Wavelength: 1.12713e-10 m
# Mask applied: from detector
# Dark current applied: False
# Flat field applied: False
# Polarization factor: None
# Normalization factor: 1.0
# --> ROCK\\WAM39B_integrated\wam39b_rampe_3_xrd_000013_integrated.dat
#       2th_deg             I
  2.502596e+01    4.939578e+03
  2.511750e+01    2.018213e+04
  2.520905e+01    2.050007e+04
  2.530059e+01    2.058820e+04
  2.539213e+01    2.000516e+04
  2.548367e+01    1.990136e+04
  2.557521e+01    1.986704e+04
  2.566675e+01    2.009411e+04
  2.575829e+01    2.052185e+04
  2.584984e+01    2.076904e+04
  2.594138e+01    2.060347e+04
  2.603292e+01    2.024016e+04
  2.612446e+01    1.987933e+04
  2.621600e+01    1.967768e+04
  2.630754e+01    2.004223e+04
  2.639908e+01    2.269269e+04
  2.649063e+01    3.281572e+04
  2.658217e+01    3.159773e+04
  2.667371e+01    4.508417e+04
  2.676525e+01    2.981757e+04
  2.685679e+01    2.014477e+04
  2.694833e+01    1.805049e+04
  2.703988e+01    1.737459e+04
  2.713142e+01    1.702421e+04
  2.722296e+01    1.672836e+04
  2.731450e+01    1.651987e+04
  2.740604e+01    1.629380e+04
  2.749758e+01    1.616960e+04
  2.758912e+01    1.605275e+04
  2.768067e+01    1.597326e+04
  2.777221e+01    1.592107e+04
  2.786375e+01    1.604149e+04
  2.795529e+01    1.629799e+04
  2.804683e+01    1.762106e+04
  2.813837e+01    2.198407e+04
  2.822991e+01    1.830054e+04
  2.832146e+01    1.610199e+04
  2.841300e+01    1.523028e+04
  2.850454e+01    1.471200e+04
  2.859608e+01    1.434507e+04
  2.868762e+01    1.405602e+04
  2.877916e+01    1.381987e+04
  2.887070e+01    1.360830e+04
  2.896225e+01    1.344602e+04
  2.905379e+01    1.334494e+04
  2.914533e+01    1.328456e+04
  2.923687e+01    1.317658e+04
  2.932841e+01    1.289119e+04
  2.941995e+01    1.262687e+04
  2.951149e+01    1.243917e+04
  2.960304e+01    1.262009e+04
  2.969458e+01    1.409696e+04
  2.978612e+01    1.259865e+04
  2.987766e+01    1.179035e+04
  2.996920e+01    1.161307e+04
  3.006074e+01    1.150922e+04
  3.015228e+01    1.144821e+04
  3.024383e+01    1.138993e+04
  3.033537e+01    1.136542e+04
  3.042691e+01    1.138786e+04
  3.051845e+01    1.150666e+04
  3.060999e+01    1.188826e+04
  3.070153e+01    1.332640e+04
  3.079308e+01    2.024614e+04
  3.088462e+01    4.168735e+04
  3.097616e+01    3.540543e+04
  3.106770e+01    2.005327e+04
  3.115924e+01    2.871866e+04
  3.125078e+01    2.226265e+04
  3.134232e+01    1.240830e+04
  3.143387e+01    1.099015e+04
  3.152541e+01    1.057956e+04
  3.161695e+01    1.036690e+04
  3.170849e+01    1.022225e+04
  3.180003e+01    1.011507e+04
  3.189157e+01    1.003956e+04
  3.198311e+01    9.975642e+03
  3.207466e+01    9.932183e+03
  3.216620e+01    9.919210e+03
  3.225774e+01    9.905515e+03
  3.234928e+01    9.839793e+03
  3.244082e+01    9.768293e+03
  3.253236e+01    1.017612e+04
  3.262390e+01    1.144426e+04
  3.271545e+01    9.961362e+03
  3.280699e+01    9.553062e+03
  3.289853e+01    9.517856e+03
  3.299007e+01    9.451224e+03
  3.308161e+01    9.290009e+03
  3.317315e+01    9.153804e+03
  3.326469e+01    9.081131e+03
  3.335624e+01    9.031111e+03
  3.344778e+01    9.002460e+03
  3.353932e+01    8.964625e+03
  3.363086e+01    8.967802e+03
  3.372240e+01    9.026165e+03
  3.381394e+01    9.438334e+03
  3.390549e+01    1.331134e+04
  3.399703e+01    2.327406e+04
  3.408857e+01    1.206998e+04
  3.418011e+01    9.139566e+03
  3.427165e+01    8.701280e+03
  3.436319e+01    8.552018e+03
  3.445473e+01    8.462968e+03
  3.454628e+01    8.411394e+03
  3.463782e+01    8.385248e+03
  3.472936e+01    8.372803e+03
  3.482090e+01    8.364312e+03
  3.491244e+01    8.383649e+03
  3.500398e+01    8.414498e+03
  3.509552e+01    8.401528e+03
  3.518707e+01    8.281321e+03
  3.527861e+01    8.135835e+03
  3.537015e+01    8.019477e+03
  3.546169e+01    7.917885e+03
  3.555323e+01    7.852083e+03
  3.564477e+01    7.791041e+03
  3.573631e+01    7.763526e+03
  3.582786e+01    7.737171e+03
  3.591940e+01    7.736575e+03
  3.601094e+01    7.744361e+03
  3.610248e+01    7.740000e+03
  3.619402e+01    7.761274e+03
  3.628556e+01    7.786390e+03
  3.637710e+01    7.886517e+03
  3.646865e+01    8.423525e+03
  3.656019e+01    1.263047e+04
  3.665173e+01    1.112594e+04
  3.674327e+01    8.234771e+03
  3.683481e+01    7.923570e+03
  3.692635e+01    7.872842e+03
  3.701790e+01    7.869900e+03
  3.710944e+01    7.895639e+03
  3.720098e+01    7.940917e+03
  3.729252e+01    8.018389e+03
  3.738406e+01    8.122385e+03
  3.747560e+01    8.345490e+03
  3.756714e+01    8.892821e+03
  3.765869e+01    1.086516e+04
  3.775023e+01    2.787321e+04
  3.784177e+01    7.675476e+04
  3.793331e+01    2.514163e+04
  3.802485e+01    1.074985e+04
  3.811639e+01    8.935051e+03
  3.820793e+01    8.402109e+03
  3.829948e+01    8.175152e+03
  3.839102e+01    8.056341e+03
  3.848256e+01    8.010231e+03
  3.857410e+01    7.988837e+03
  3.866564e+01    7.990484e+03
  3.875718e+01    7.988808e+03
  3.884872e+01    8.021700e+03
  3.894027e+01    8.410325e+03
  3.903181e+01    1.060680e+04
  3.912335e+01    8.908785e+03
  3.921489e+01    7.969421e+03
  3.930643e+01    7.834180e+03
  3.939797e+01    7.786494e+03
  3.948951e+01    7.742424e+03
  3.958106e+01    7.728743e+03
  3.967260e+01    7.736719e+03
  3.976414e+01    7.708147e+03
  3.985568e+01    7.681633e+03
  3.994722e+01    7.628750e+03
  4.003876e+01    7.595137e+03
  4.013031e+01    7.735646e+03
  4.022185e+01    8.253541e+03
  4.031339e+01    7.697084e+03
  4.040493e+01    7.496622e+03
  4.049647e+01    7.453942e+03
  4.058801e+01    7.437319e+03
  4.067955e+01    7.413921e+03
  4.077110e+01    7.403705e+03
  4.086264e+01    7.406353e+03
  4.095418e+01    7.409232e+03
  4.104572e+01    7.444200e+03
  4.113726e+01    7.526245e+03
  4.122880e+01    7.983972e+03
  4.132034e+01    1.233150e+04
  4.141189e+01    1.307506e+04
  4.150343e+01    8.250864e+03
  4.159497e+01    7.658198e+03
  4.168651e+01    7.576064e+03
  4.177805e+01    7.549405e+03
  4.186959e+01    7.492712e+03
  4.196113e+01    7.445218e+03
  4.205268e+01    7.435493e+03
  4.214422e+01    7.470140e+03
  4.223576e+01    7.552708e+03
  4.232730e+01    7.660452e+03
  4.241884e+01    8.192695e+03
  4.251038e+01    8.992985e+03
  4.260192e+01    7.609659e+03
  4.269347e+01    7.284066e+03
  4.278501e+01    7.209689e+03
  4.287655e+01    7.178240e+03
  4.296809e+01    7.169308e+03
  4.305963e+01    7.159649e+03
  4.315117e+01    7.167099e+03
  4.324272e+01    7.197027e+03
  4.333426e+01    7.286489e+03
  4.342580e+01    7.526539e+03
  4.351734e+01    9.726450e+03
  4.360888e+01    1.316021e+04
  4.370042e+01    8.400161e+03
  4.379196e+01    7.495920e+03
  4.388351e+01    7.527909e+03
  4.397505e+01    7.792404e+03
  4.406659e+01    8.720807e+03
  4.415813e+01    1.283156e+04
  4.424967e+01    2.297405e+04
  4.434121e+01    1.627693e+04
  4.443275e+01    1.019272e+04
  4.452430e+01    1.019787e+04
  4.461584e+01    2.457347e+04
  4.470738e+01    2.726365e+04
  4.479892e+01    1.025999e+04
  4.489046e+01    7.830863e+03
  4.498200e+01    7.381799e+03
  4.507354e+01    7.199471e+03
  4.516509e+01    7.120502e+03
  4.525663e+01    7.077948e+03
  4.534817e+01    7.064320e+03
  4.543971e+01    7.084171e+03
  4.553125e+01    7.272416e+03
  4.562279e+01    8.669208e+03
  4.571433e+01    1.460108e+04
  4.580588e+01    9.622046e+03
  4.589742e+01    7.372039e+03
  4.598896e+01    7.102667e+03
  4.608050e+01    7.056980e+03
  4.617204e+01    7.083118e+03
  4.626358e+01    7.141201e+03
  4.635513e+01    7.099589e+03
  4.644667e+01    7.010911e+03
  4.653821e+01    7.011763e+03
  4.662975e+01    7.218238e+03
  4.672129e+01    8.842297e+03
  4.681283e+01    8.417257e+03
  4.690437e+01    7.336000e+03
  4.699592e+01    7.277036e+03
  4.708746e+01    7.305332e+03
  4.717900e+01    7.293275e+03
  4.727054e+01    7.305754e+03
  4.736208e+01    7.338336e+03
  4.745362e+01    7.488605e+03
  4.754516e+01    7.748966e+03
  4.763671e+01    8.141312e+03
  4.772825e+01    9.037983e+03
  4.781979e+01    8.344588e+03
  4.788844e+01    3.084783e+03