File: Output/ROCK_XRD/WAM39B_integrated/rampe3/wam39b_rampe_3_xrd_000014_integrated.dat
# == pyFAI calibration ==
# Distance Sample to Detector: 0.261615 m
# PONI: 2.023e-01, 2.348e-01 m
# Rotations: -0.026380 0.002005 0.000000 rad
#
# == Fit2d calibration ==
# Distance Sample-beamCenter: 261.707 mm
# Center: x=6119.331, y=5134.776 pix
# Tilt: 1.516 deg  TiltPlanRot: 4.347 deg
#
# Detector Rayonix SX165	 PixelSize= 3.950e-05, 3.950e-05 m
#    Detector has a mask: True
#    Detector has a dark current: False
#    detector has a flat field: False
#
# Wavelength: 1.12713e-10 m
# Mask applied: from detector
# Dark current applied: False
# Flat field applied: False
# Polarization factor: None
# Normalization factor: 1.0
# --> ROCK\\WAM39B_integrated\wam39b_rampe_3_xrd_000014_integrated.dat
#       2th_deg             I
  2.502596e+01    4.996785e+03
  2.511750e+01    2.042411e+04
  2.520905e+01    2.074167e+04
  2.530059e+01    2.080159e+04
  2.539213e+01    2.021880e+04
  2.548367e+01    2.012139e+04
  2.557521e+01    2.009640e+04
  2.566675e+01    2.034382e+04
  2.575829e+01    2.077742e+04
  2.584984e+01    2.102191e+04
  2.594138e+01    2.083071e+04
  2.603292e+01    2.045136e+04
  2.612446e+01    2.007925e+04
  2.621600e+01    1.989984e+04
  2.630754e+01    2.026709e+04
  2.639908e+01    2.302141e+04
  2.649063e+01    3.321454e+04
  2.658217e+01    3.188842e+04
  2.667371e+01    4.556161e+04
  2.676525e+01    3.007484e+04
  2.685679e+01    2.034595e+04
  2.694833e+01    1.824547e+04
  2.703988e+01    1.757323e+04
  2.713142e+01    1.720291e+04
  2.722296e+01    1.690224e+04
  2.731450e+01    1.668992e+04
  2.740604e+01    1.647474e+04
  2.749758e+01    1.633303e+04
  2.758912e+01    1.624033e+04
  2.768067e+01    1.615153e+04
  2.777221e+01    1.610331e+04
  2.786375e+01    1.621311e+04
  2.795529e+01    1.649447e+04
  2.804683e+01    1.785097e+04
  2.813837e+01    2.224209e+04
  2.822991e+01    1.845327e+04
  2.832146e+01    1.626324e+04
  2.841300e+01    1.540694e+04
  2.850454e+01    1.487151e+04
  2.859608e+01    1.450003e+04
  2.868762e+01    1.420442e+04
  2.877916e+01    1.396152e+04
  2.887070e+01    1.375299e+04
  2.896225e+01    1.358615e+04
  2.905379e+01    1.347082e+04
  2.914533e+01    1.343189e+04
  2.923687e+01    1.332304e+04
  2.932841e+01    1.302325e+04
  2.941995e+01    1.275044e+04
  2.951149e+01    1.258419e+04
  2.960304e+01    1.278287e+04
  2.969458e+01    1.425002e+04
  2.978612e+01    1.271431e+04
  2.987766e+01    1.192212e+04
  2.996920e+01    1.173243e+04
  3.006074e+01    1.164054e+04
  3.015228e+01    1.156566e+04
  3.024383e+01    1.151710e+04
  3.033537e+01    1.150294e+04
  3.042691e+01    1.151703e+04
  3.051845e+01    1.163464e+04
  3.060999e+01    1.200980e+04
  3.070153e+01    1.348583e+04
  3.079308e+01    2.055562e+04
  3.088462e+01    4.217121e+04
  3.097616e+01    3.566072e+04
  3.106770e+01    2.030175e+04
  3.115924e+01    2.927754e+04
  3.125078e+01    2.224467e+04
  3.134232e+01    1.249583e+04
  3.143387e+01    1.109715e+04
  3.152541e+01    1.067637e+04
  3.161695e+01    1.047444e+04
  3.170849e+01    1.032968e+04
  3.180003e+01    1.022578e+04
  3.189157e+01    1.013455e+04
  3.198311e+01    1.008412e+04
  3.207466e+01    1.004666e+04
  3.216620e+01    1.002323e+04
  3.225774e+01    1.000168e+04
  3.234928e+01    9.951978e+03
  3.244082e+01    9.878831e+03
  3.253236e+01    1.029761e+04
  3.262390e+01    1.155816e+04
  3.271545e+01    1.005201e+04
  3.280699e+01    9.660091e+03
  3.289853e+01    9.626345e+03
  3.299007e+01    9.552114e+03
  3.308161e+01    9.392820e+03
  3.317315e+01    9.251319e+03
  3.326469e+01    9.176379e+03
  3.335624e+01    9.128979e+03
  3.344778e+01    9.091724e+03
  3.353932e+01    9.065612e+03
  3.363086e+01    9.066788e+03
  3.372240e+01    9.133931e+03
  3.381394e+01    9.562413e+03
  3.390549e+01    1.362402e+04
  3.399703e+01    2.344875e+04
  3.408857e+01    1.208949e+04
  3.418011e+01    9.226707e+03
  3.427165e+01    8.798657e+03
  3.436319e+01    8.640229e+03
  3.445473e+01    8.552681e+03
  3.454628e+01    8.506418e+03
  3.463782e+01    8.475944e+03
  3.472936e+01    8.466729e+03
  3.482090e+01    8.457344e+03
  3.491244e+01    8.486396e+03
  3.500398e+01    8.506607e+03
  3.509552e+01    8.494386e+03
  3.518707e+01    8.367688e+03
  3.527861e+01    8.226304e+03
  3.537015e+01    8.095147e+03
  3.546169e+01    7.993249e+03
  3.555323e+01    7.939654e+03
  3.564477e+01    7.877292e+03
  3.573631e+01    7.849261e+03
  3.582786e+01    7.822905e+03
  3.591940e+01    7.823649e+03
  3.601094e+01    7.820771e+03
  3.610248e+01    7.825140e+03
  3.619402e+01    7.841168e+03
  3.628556e+01    7.878272e+03
  3.637710e+01    7.977770e+03
  3.646865e+01    8.548893e+03
  3.656019e+01    1.286683e+04
  3.665173e+01    1.113576e+04
  3.674327e+01    8.308786e+03
  3.683481e+01    8.000354e+03
  3.692635e+01    7.958204e+03
  3.701790e+01    7.957981e+03
  3.710944e+01    7.984628e+03
  3.720098e+01    8.022454e+03
  3.729252e+01    8.092505e+03
  3.738406e+01    8.208850e+03
  3.747560e+01    8.439624e+03
  3.756714e+01    9.005072e+03
  3.765869e+01    1.105252e+04
  3.775023e+01    2.902460e+04
  3.784177e+01    7.724695e+04
  3.793331e+01    2.477203e+04
  3.802485e+01    1.080789e+04
  3.811639e+01    9.016080e+03
  3.820793e+01    8.484653e+03
  3.829948e+01    8.256112e+03
  3.839102e+01    8.149623e+03
  3.848256e+01    8.097033e+03
  3.857410e+01    8.081406e+03
  3.866564e+01    8.070592e+03
  3.875718e+01    8.072966e+03
  3.884872e+01    8.109028e+03
  3.894027e+01    8.535854e+03
  3.903181e+01    1.072733e+04
  3.912335e+01    8.970670e+03
  3.921489e+01    8.040318e+03
  3.930643e+01    7.912094e+03
  3.939797e+01    7.867446e+03
  3.948951e+01    7.826355e+03
  3.958106e+01    7.816321e+03
  3.967260e+01    7.818720e+03
  3.976414e+01    7.788785e+03
  3.985568e+01    7.765330e+03
  3.994722e+01    7.712088e+03
  4.003876e+01    7.673722e+03
  4.013031e+01    7.815288e+03
  4.022185e+01    8.337462e+03
  4.031339e+01    7.776455e+03
  4.040493e+01    7.567138e+03
  4.049647e+01    7.535418e+03
  4.058801e+01    7.502670e+03
  4.067955e+01    7.494312e+03
  4.077110e+01    7.482972e+03
  4.086264e+01    7.489432e+03
  4.095418e+01    7.487515e+03
  4.104572e+01    7.519371e+03
  4.113726e+01    7.621483e+03
  4.122880e+01    8.096877e+03
  4.132034e+01    1.262923e+04
  4.141189e+01    1.307155e+04
  4.150343e+01    8.301977e+03
  4.159497e+01    7.726929e+03
  4.168651e+01    7.668521e+03
  4.177805e+01    7.625985e+03
  4.186959e+01    7.568869e+03
  4.196113e+01    7.528541e+03
  4.205268e+01    7.517872e+03
  4.214422e+01    7.554606e+03
  4.223576e+01    7.626423e+03
  4.232730e+01    7.751147e+03
  4.241884e+01    8.305854e+03
  4.251038e+01    9.071268e+03
  4.260192e+01    7.674755e+03
  4.269347e+01    7.369236e+03
  4.278501e+01    7.285151e+03
  4.287655e+01    7.250939e+03
  4.296809e+01    7.243565e+03
  4.305963e+01    7.246158e+03
  4.315117e+01    7.252086e+03
  4.324272e+01    7.275368e+03
  4.333426e+01    7.364816e+03
  4.342580e+01    7.612552e+03
  4.351734e+01    9.951530e+03
  4.360888e+01    1.321979e+04
  4.370042e+01    8.435892e+03
  4.379196e+01    7.586874e+03
  4.388351e+01    7.603433e+03
  4.397505e+01    7.887417e+03
  4.406659e+01    8.827684e+03
  4.415813e+01    1.304045e+04
  4.424967e+01    2.324533e+04
  4.434121e+01    1.638179e+04
  4.443275e+01    1.030412e+04
  4.452430e+01    1.039840e+04
  4.461584e+01    2.548560e+04
  4.470738e+01    2.700696e+04
  4.479892e+01    1.023883e+04
  4.489046e+01    7.896882e+03
  4.498200e+01    7.444522e+03
  4.507354e+01    7.274899e+03
  4.516509e+01    7.190427e+03
  4.525663e+01    7.150274e+03
  4.534817e+01    7.141010e+03
  4.543971e+01    7.168211e+03
  4.553125e+01    7.364174e+03
  4.562279e+01    8.846849e+03
  4.571433e+01    1.477347e+04
  4.580588e+01    9.598529e+03
  4.589742e+01    7.438494e+03
  4.598896e+01    7.163782e+03
  4.608050e+01    7.136644e+03
  4.617204e+01    7.171555e+03
  4.626358e+01    7.214270e+03
  4.635513e+01    7.175974e+03
  4.644667e+01    7.087485e+03
  4.653821e+01    7.085082e+03
  4.662975e+01    7.292552e+03
  4.672129e+01    8.994029e+03
  4.681283e+01    8.445863e+03
  4.690437e+01    7.412905e+03
  4.699592e+01    7.349664e+03
  4.708746e+01    7.375158e+03
  4.717900e+01    7.358539e+03
  4.727054e+01    7.372394e+03
  4.736208e+01    7.416142e+03
  4.745362e+01    7.556333e+03
  4.754516e+01    7.848555e+03
  4.763671e+01    8.227855e+03
  4.772825e+01    9.175946e+03
  4.781979e+01    8.407223e+03
  4.788844e+01    3.120636e+03