File: Output/ROCK_XRD/WAM39B_integrated/rampe3/wam39b_rampe_3_xrd_000005_integrated.dat
# == pyFAI calibration ==
# Distance Sample to Detector: 0.261615 m
# PONI: 2.023e-01, 2.348e-01 m
# Rotations: -0.026380 0.002005 0.000000 rad
#
# == Fit2d calibration ==
# Distance Sample-beamCenter: 261.707 mm
# Center: x=6119.331, y=5134.776 pix
# Tilt: 1.516 deg  TiltPlanRot: 4.347 deg
#
# Detector Rayonix SX165	 PixelSize= 3.950e-05, 3.950e-05 m
#    Detector has a mask: True
#    Detector has a dark current: False
#    detector has a flat field: False
#
# Wavelength: 1.12713e-10 m
# Mask applied: from detector
# Dark current applied: False
# Flat field applied: False
# Polarization factor: None
# Normalization factor: 1.0
# --> ROCK\\WAM39B_integrated\wam39b_rampe_3_xrd_000005_integrated.dat
#       2th_deg             I
  2.502596e+01    4.640676e+03
  2.511750e+01    1.901864e+04
  2.520905e+01    1.929331e+04
  2.530059e+01    1.939534e+04
  2.539213e+01    1.887615e+04
  2.548367e+01    1.882050e+04
  2.557521e+01    1.901174e+04
  2.566675e+01    1.948835e+04
  2.575829e+01    1.975083e+04
  2.584984e+01    1.959833e+04
  2.594138e+01    1.922000e+04
  2.603292e+01    1.886585e+04
  2.612446e+01    1.852154e+04
  2.621600e+01    1.884627e+04
  2.630754e+01    2.090767e+04
  2.639908e+01    3.078930e+04
  2.649063e+01    3.669459e+04
  2.658217e+01    4.338256e+04
  2.667371e+01    2.450118e+04
  2.676525e+01    1.854736e+04
  2.685679e+01    1.706604e+04
  2.694833e+01    1.648791e+04
  2.703988e+01    1.615572e+04
  2.713142e+01    1.593371e+04
  2.722296e+01    1.569062e+04
  2.731450e+01    1.552637e+04
  2.740604e+01    1.534816e+04
  2.749758e+01    1.524252e+04
  2.758912e+01    1.518480e+04
  2.768067e+01    1.518171e+04
  2.777221e+01    1.525611e+04
  2.786375e+01    1.556991e+04
  2.795529e+01    1.662305e+04
  2.804683e+01    2.060428e+04
  2.813837e+01    1.794217e+04
  2.822991e+01    1.526586e+04
  2.832146e+01    1.445945e+04
  2.841300e+01    1.396112e+04
  2.850454e+01    1.366095e+04
  2.859608e+01    1.340734e+04
  2.868762e+01    1.318190e+04
  2.877916e+01    1.300935e+04
  2.887070e+01    1.288366e+04
  2.896225e+01    1.281269e+04
  2.905379e+01    1.274638e+04
  2.914533e+01    1.251929e+04
  2.923687e+01    1.223900e+04
  2.932841e+01    1.201848e+04
  2.941995e+01    1.184869e+04
  2.951149e+01    1.195349e+04
  2.960304e+01    1.330825e+04
  2.969458e+01    1.216112e+04
  2.978612e+01    1.124217e+04
  2.987766e+01    1.102676e+04
  2.996920e+01    1.091609e+04
  3.006074e+01    1.085506e+04
  3.015228e+01    1.082123e+04
  3.024383e+01    1.080626e+04
  3.033537e+01    1.083840e+04
  3.042691e+01    1.101309e+04
  3.051845e+01    1.155196e+04
  3.060999e+01    1.398014e+04
  3.070153e+01    2.830072e+04
  3.079308e+01    4.478423e+04
  3.088462e+01    2.232446e+04
  3.097616e+01    1.527822e+04
  3.106770e+01    2.542422e+04
  3.115924e+01    2.193669e+04
  3.125078e+01    1.182377e+04
  3.134232e+01    1.038882e+04
  3.143387e+01    1.001196e+04
  3.152541e+01    9.826219e+03
  3.161695e+01    9.694523e+03
  3.170849e+01    9.597854e+03
  3.180003e+01    9.516302e+03
  3.189157e+01    9.456854e+03
  3.198311e+01    9.418316e+03
  3.207466e+01    9.401799e+03
  3.216620e+01    9.395048e+03
  3.225774e+01    9.341511e+03
  3.234928e+01    9.277001e+03
  3.244082e+01    9.628140e+03
  3.253236e+01    1.083712e+04
  3.262390e+01    9.456665e+03
  3.271545e+01    9.081366e+03
  3.280699e+01    9.034515e+03
  3.289853e+01    8.967413e+03
  3.299007e+01    8.814354e+03
  3.308161e+01    8.694936e+03
  3.317315e+01    8.622210e+03
  3.326469e+01    8.575915e+03
  3.335624e+01    8.547897e+03
  3.344778e+01    8.520352e+03
  3.353932e+01    8.514956e+03
  3.363086e+01    8.582831e+03
  3.372240e+01    8.984873e+03
  3.381394e+01    1.290618e+04
  3.390549e+01    2.186784e+04
  3.399703e+01    1.118628e+04
  3.408857e+01    8.649612e+03
  3.418011e+01    8.266269e+03
  3.427165e+01    8.123771e+03
  3.436319e+01    8.051991e+03
  3.445473e+01    8.001458e+03
  3.454628e+01    7.971542e+03
  3.463782e+01    7.945581e+03
  3.472936e+01    7.930240e+03
  3.482090e+01    7.949424e+03
  3.491244e+01    7.962654e+03
  3.500398e+01    7.967379e+03
  3.509552e+01    7.891577e+03
  3.518707e+01    7.763752e+03
  3.527861e+01    7.664341e+03
  3.537015e+01    7.559940e+03
  3.546169e+01    7.482655e+03
  3.555323e+01    7.428966e+03
  3.564477e+01    7.385826e+03
  3.573631e+01    7.366230e+03
  3.582786e+01    7.348486e+03
  3.591940e+01    7.336503e+03
  3.601094e+01    7.348557e+03
  3.610248e+01    7.359446e+03
  3.619402e+01    7.404587e+03
  3.628556e+01    7.509255e+03
  3.637710e+01    8.166076e+03
  3.646865e+01    1.241736e+04
  3.656019e+01    9.937638e+03
  3.665173e+01    7.736543e+03
  3.674327e+01    7.509793e+03
  3.683481e+01    7.481529e+03
  3.692635e+01    7.497536e+03
  3.701790e+01    7.520455e+03
  3.710944e+01    7.568183e+03
  3.720098e+01    7.647158e+03
  3.729252e+01    7.768918e+03
  3.738406e+01    8.009798e+03
  3.747560e+01    8.610149e+03
  3.756714e+01    1.102981e+04
  3.765869e+01    3.415115e+04
  3.775023e+01    6.864329e+04
  3.784177e+01    1.900173e+04
  3.793331e+01    9.761854e+03
  3.802485e+01    8.395079e+03
  3.811639e+01    7.982472e+03
  3.820793e+01    7.781055e+03
  3.829948e+01    7.694850e+03
  3.839102e+01    7.640929e+03
  3.848256e+01    7.623447e+03
  3.857410e+01    7.619536e+03
  3.866564e+01    7.619236e+03
  3.875718e+01    7.674866e+03
  3.884872e+01    8.261500e+03
  3.894027e+01    1.007708e+04
  3.903181e+01    8.146211e+03
  3.912335e+01    7.576677e+03
  3.921489e+01    7.486120e+03
  3.930643e+01    7.435220e+03
  3.939797e+01    7.419917e+03
  3.948951e+01    7.413593e+03
  3.958106e+01    7.409331e+03
  3.967260e+01    7.377508e+03
  3.976414e+01    7.333848e+03
  3.985568e+01    7.289508e+03
  3.994722e+01    7.282446e+03
  4.003876e+01    7.499910e+03
  4.013031e+01    7.807479e+03
  4.022185e+01    7.285525e+03
  4.031339e+01    7.168052e+03
  4.040493e+01    7.138667e+03
  4.049647e+01    7.120669e+03
  4.058801e+01    7.107863e+03
  4.067955e+01    7.092884e+03
  4.077110e+01    7.093907e+03
  4.086264e+01    7.113961e+03
  4.095418e+01    7.152262e+03
  4.104572e+01    7.248698e+03
  4.113726e+01    8.033653e+03
  4.122880e+01    1.351570e+04
  4.132034e+01    1.060858e+04
  4.141189e+01    7.620990e+03
  4.150343e+01    7.311052e+03
  4.159497e+01    7.232544e+03
  4.168651e+01    7.172450e+03
  4.177805e+01    7.122289e+03
  4.186959e+01    7.093084e+03
  4.196113e+01    7.113288e+03
  4.205268e+01    7.172273e+03
  4.214422e+01    7.261363e+03
  4.223576e+01    7.369043e+03
  4.232730e+01    8.241092e+03
  4.241884e+01    8.135532e+03
  4.251038e+01    7.112148e+03
  4.260192e+01    6.957586e+03
  4.269347e+01    6.917300e+03
  4.278501e+01    6.888859e+03
  4.287655e+01    6.872843e+03
  4.296809e+01    6.883112e+03
  4.305963e+01    6.892288e+03
  4.315117e+01    6.936969e+03
  4.324272e+01    7.039225e+03
  4.333426e+01    7.463712e+03
  4.342580e+01    1.137796e+04
  4.351734e+01    1.089172e+04
  4.360888e+01    7.514879e+03
  4.370042e+01    7.240708e+03
  4.379196e+01    7.446325e+03
  4.388351e+01    8.423855e+03
  4.397505e+01    1.401050e+04
  4.406659e+01    2.240924e+04
  4.415813e+01    1.306645e+04
  4.424967e+01    8.807532e+03
  4.434121e+01    8.309064e+03
  4.443275e+01    1.156040e+04
  4.452430e+01    3.097606e+04
  4.461584e+01    1.708539e+04
  4.470738e+01    8.280108e+03
  4.479892e+01    7.248179e+03
  4.489046e+01    6.968550e+03
  4.498200e+01    6.868041e+03
  4.507354e+01    6.807019e+03
  4.516509e+01    6.790321e+03
  4.525663e+01    6.798444e+03
  4.534817e+01    6.852452e+03
  4.543971e+01    7.187717e+03
  4.553125e+01    1.051283e+04
  4.562279e+01    1.269346e+04
  4.571433e+01    7.686194e+03
  4.580588e+01    6.912955e+03
  4.589742e+01    6.792614e+03
  4.598896e+01    6.789405e+03
  4.608050e+01    6.807231e+03
  4.617204e+01    6.826567e+03
  4.626358e+01    6.763631e+03
  4.635513e+01    6.695051e+03
  4.644667e+01    6.722899e+03
  4.653821e+01    7.294520e+03
  4.662975e+01    8.797857e+03
  4.672129e+01    7.276675e+03
  4.681283e+01    6.904002e+03
  4.690437e+01    6.875823e+03
  4.699592e+01    6.872201e+03
  4.708746e+01    6.886843e+03
  4.717900e+01    6.873588e+03
  4.727054e+01    6.922765e+03
  4.736208e+01    7.011281e+03
  4.745362e+01    7.176882e+03
  4.754516e+01    7.806638e+03
  4.763671e+01    9.088393e+03
  4.772825e+01    7.858097e+03
  4.781979e+01    7.176991e+03
  4.788844e+01    2.871263e+03