File: Output/ROCK_XRD/WAM39B_integrated/rampe3/wam39b_rampe_3_xrd_000001_integrated.dat
# == pyFAI calibration ==
# Distance Sample to Detector: 0.261615 m
# PONI: 2.023e-01, 2.348e-01 m
# Rotations: -0.026380 0.002005 0.000000 rad
#
# == Fit2d calibration ==
# Distance Sample-beamCenter: 261.707 mm
# Center: x=6119.331, y=5134.776 pix
# Tilt: 1.516 deg  TiltPlanRot: 4.347 deg
#
# Detector Rayonix SX165	 PixelSize= 3.950e-05, 3.950e-05 m
#    Detector has a mask: True
#    Detector has a dark current: False
#    detector has a flat field: False
#
# Wavelength: 1.12713e-10 m
# Mask applied: from detector
# Dark current applied: False
# Flat field applied: False
# Polarization factor: None
# Normalization factor: 1.0
# --> ROCK\\WAM39B_integrated\wam39b_rampe_3_xrd_000001_integrated.dat
#       2th_deg             I
  2.502596e+01    4.324542e+03
  2.511750e+01    1.774315e+04
  2.520905e+01    1.800221e+04
  2.530059e+01    1.810675e+04
  2.539213e+01    1.764255e+04
  2.548367e+01    1.773643e+04
  2.557521e+01    1.809541e+04
  2.566675e+01    1.853505e+04
  2.575829e+01    1.856646e+04
  2.584984e+01    1.808446e+04
  2.594138e+01    1.765721e+04
  2.603292e+01    1.737546e+04
  2.612446e+01    1.749630e+04
  2.621600e+01    1.892255e+04
  2.630754e+01    2.653686e+04
  2.639908e+01    3.941974e+04
  2.649063e+01    4.012929e+04
  2.658217e+01    2.241936e+04
  2.667371e+01    1.738904e+04
  2.676525e+01    1.607535e+04
  2.685679e+01    1.555942e+04
  2.694833e+01    1.521467e+04
  2.703988e+01    1.499177e+04
  2.713142e+01    1.482460e+04
  2.722296e+01    1.464146e+04
  2.731450e+01    1.449385e+04
  2.740604e+01    1.432682e+04
  2.749758e+01    1.426646e+04
  2.758912e+01    1.425810e+04
  2.768067e+01    1.434353e+04
  2.777221e+01    1.456728e+04
  2.786375e+01    1.533766e+04
  2.795529e+01    1.847296e+04
  2.804683e+01    1.796900e+04
  2.813837e+01    1.461894e+04
  2.822991e+01    1.367286e+04
  2.832146e+01    1.322138e+04
  2.841300e+01    1.288663e+04
  2.850454e+01    1.266396e+04
  2.859608e+01    1.247484e+04
  2.868762e+01    1.231060e+04
  2.877916e+01    1.218889e+04
  2.887070e+01    1.213702e+04
  2.896225e+01    1.205326e+04
  2.905379e+01    1.182483e+04
  2.914533e+01    1.156381e+04
  2.923687e+01    1.135641e+04
  2.932841e+01    1.119054e+04
  2.941995e+01    1.119554e+04
  2.951149e+01    1.222387e+04
  2.960304e+01    1.177773e+04
  2.969458e+01    1.067225e+04
  2.978612e+01    1.042206e+04
  2.987766e+01    1.030195e+04
  2.996920e+01    1.022687e+04
  3.006074e+01    1.020431e+04
  3.015228e+01    1.020524e+04
  3.024383e+01    1.023140e+04
  3.033537e+01    1.043166e+04
  3.042691e+01    1.115761e+04
  3.051845e+01    1.477212e+04
  3.060999e+01    3.399415e+04
  3.070153e+01    3.663032e+04
  3.079308e+01    1.705430e+04
  3.088462e+01    1.298114e+04
  3.097616e+01    2.105330e+04
  3.106770e+01    2.294272e+04
  3.115924e+01    1.153929e+04
  3.125078e+01    9.819007e+03
  3.134232e+01    9.431338e+03
  3.143387e+01    9.248027e+03
  3.152541e+01    9.118956e+03
  3.161695e+01    9.022958e+03
  3.170849e+01    8.961378e+03
  3.180003e+01    8.894416e+03
  3.189157e+01    8.860896e+03
  3.198311e+01    8.841354e+03
  3.207466e+01    8.829113e+03
  3.216620e+01    8.777846e+03
  3.225774e+01    8.709660e+03
  3.234928e+01    8.946375e+03
  3.244082e+01    1.011198e+04
  3.253236e+01    8.980235e+03
  3.262390e+01    8.543912e+03
  3.271545e+01    8.489573e+03
  3.280699e+01    8.407048e+03
  3.289853e+01    8.280697e+03
  3.299007e+01    8.173562e+03
  3.308161e+01    8.102998e+03
  3.317315e+01    8.075100e+03
  3.326469e+01    8.047216e+03
  3.335624e+01    8.019248e+03
  3.344778e+01    8.009393e+03
  3.353932e+01    8.056744e+03
  3.363086e+01    8.407771e+03
  3.372240e+01    1.155450e+04
  3.381394e+01    2.057349e+04
  3.390549e+01    1.088699e+04
  3.399703e+01    8.186935e+03
  3.408857e+01    7.781532e+03
  3.418011e+01    7.655000e+03
  3.427165e+01    7.580059e+03
  3.436319e+01    7.546118e+03
  3.445473e+01    7.503836e+03
  3.454628e+01    7.473489e+03
  3.463782e+01    7.463658e+03
  3.472936e+01    7.476906e+03
  3.482090e+01    7.504765e+03
  3.491244e+01    7.506813e+03
  3.500398e+01    7.430003e+03
  3.509552e+01    7.305479e+03
  3.518707e+01    7.210837e+03
  3.527861e+01    7.135539e+03
  3.537015e+01    7.060892e+03
  3.546169e+01    7.007253e+03
  3.555323e+01    6.970006e+03
  3.564477e+01    6.932655e+03
  3.573631e+01    6.912646e+03
  3.582786e+01    6.901291e+03
  3.591940e+01    6.901611e+03
  3.601094e+01    6.914024e+03
  3.610248e+01    6.955087e+03
  3.619402e+01    7.053971e+03
  3.628556e+01    7.670982e+03
  3.637710e+01    1.158033e+04
  3.646865e+01    9.226458e+03
  3.656019e+01    7.275483e+03
  3.665173e+01    7.063645e+03
  3.674327e+01    7.032875e+03
  3.683481e+01    7.040264e+03
  3.692635e+01    7.070643e+03
  3.701790e+01    7.117391e+03
  3.710944e+01    7.201169e+03
  3.720098e+01    7.326370e+03
  3.729252e+01    7.568347e+03
  3.738406e+01    8.156274e+03
  3.747560e+01    1.061560e+04
  3.756714e+01    3.442698e+04
  3.765869e+01    6.210010e+04
  3.775023e+01    1.660090e+04
  3.784177e+01    9.038402e+03
  3.793331e+01    7.898904e+03
  3.802485e+01    7.500943e+03
  3.811639e+01    7.344460e+03
  3.820793e+01    7.243006e+03
  3.829948e+01    7.204782e+03
  3.839102e+01    7.179321e+03
  3.848256e+01    7.186051e+03
  3.857410e+01    7.182311e+03
  3.866564e+01    7.256207e+03
  3.875718e+01    7.919973e+03
  3.884872e+01    9.363393e+03
  3.894027e+01    7.561341e+03
  3.903181e+01    7.143767e+03
  3.912335e+01    7.064428e+03
  3.921489e+01    7.031345e+03
  3.930643e+01    7.011203e+03
  3.939797e+01    7.010518e+03
  3.948951e+01    7.013904e+03
  3.958106e+01    6.986641e+03
  3.967260e+01    6.937246e+03
  3.976414e+01    6.882567e+03
  3.985568e+01    6.870684e+03
  3.994722e+01    7.151756e+03
  4.003876e+01    7.302749e+03
  4.013031e+01    6.866363e+03
  4.022185e+01    6.785463e+03
  4.031339e+01    6.752665e+03
  4.040493e+01    6.743581e+03
  4.049647e+01    6.727853e+03
  4.058801e+01    6.717542e+03
  4.067955e+01    6.714403e+03
  4.077110e+01    6.729557e+03
  4.086264e+01    6.767845e+03
  4.095418e+01    6.907899e+03
  4.104572e+01    7.948721e+03
  4.113726e+01    1.311163e+04
  4.122880e+01    9.097785e+03
  4.132034e+01    7.103994e+03
  4.141189e+01    6.874883e+03
  4.150343e+01    6.800143e+03
  4.159497e+01    6.743663e+03
  4.168651e+01    6.724462e+03
  4.177805e+01    6.710105e+03
  4.186959e+01    6.740802e+03
  4.196113e+01    6.790926e+03
  4.205268e+01    6.866169e+03
  4.214422e+01    6.983510e+03
  4.223576e+01    7.956961e+03
  4.232730e+01    7.364065e+03
  4.241884e+01    6.675261e+03
  4.251038e+01    6.585478e+03
  4.260192e+01    6.544587e+03
  4.269347e+01    6.516176e+03
  4.278501e+01    6.511841e+03
  4.287655e+01    6.517838e+03
  4.296809e+01    6.544178e+03
  4.305963e+01    6.589308e+03
  4.315117e+01    6.705977e+03
  4.324272e+01    7.368198e+03
  4.333426e+01    1.165296e+04
  4.342580e+01    9.127170e+03
  4.351734e+01    7.022784e+03
  4.360888e+01    6.996650e+03
  4.370042e+01    7.652969e+03
  4.379196e+01    1.204799e+04
  4.388351e+01    2.090226e+04
  4.397505e+01    1.300021e+04
  4.406659e+01    8.305357e+03
  4.415813e+01    7.419737e+03
  4.424967e+01    7.854033e+03
  4.434121e+01    1.377337e+04
  4.443275e+01    2.908909e+04
  4.452430e+01    1.191889e+04
  4.461584e+01    7.381867e+03
  4.470738e+01    6.744072e+03
  4.479892e+01    6.559527e+03
  4.489046e+01    6.463524e+03
  4.498200e+01    6.441128e+03
  4.507354e+01    6.432005e+03
  4.516509e+01    6.437681e+03
  4.525663e+01    6.525313e+03
  4.534817e+01    7.107672e+03
  4.543971e+01    1.169274e+04
  4.553125e+01    1.017260e+04
  4.562279e+01    6.852762e+03
  4.571433e+01    6.484483e+03
  4.580588e+01    6.421333e+03
  4.589742e+01    6.446219e+03
  4.598896e+01    6.470695e+03
  4.608050e+01    6.420230e+03
  4.617204e+01    6.346011e+03
  4.626358e+01    6.307546e+03
  4.635513e+01    6.394430e+03
  4.644667e+01    7.431321e+03
  4.653821e+01    7.923566e+03
  4.662975e+01    6.623605e+03
  4.672129e+01    6.464354e+03
  4.681283e+01    6.446162e+03
  4.690437e+01    6.413210e+03
  4.699592e+01    6.401101e+03
  4.708746e+01    6.438950e+03
  4.717900e+01    6.454644e+03
  4.727054e+01    6.532558e+03
  4.736208e+01    6.692812e+03
  4.745362e+01    7.480646e+03
  4.754516e+01    8.076468e+03
  4.763671e+01    7.371683e+03
  4.772825e+01    7.090140e+03
  4.781979e+01    6.738151e+03
  4.788844e+01    2.719473e+03