File: Output/ROCK_XRD/WAM39B_integrated/rampe3/wam39b_rampe_3_xrd_000011_integrated.dat
# == pyFAI calibration ==
# Distance Sample to Detector: 0.261615 m
# PONI: 2.023e-01, 2.348e-01 m
# Rotations: -0.026380 0.002005 0.000000 rad
#
# == Fit2d calibration ==
# Distance Sample-beamCenter: 261.707 mm
# Center: x=6119.331, y=5134.776 pix
# Tilt: 1.516 deg  TiltPlanRot: 4.347 deg
#
# Detector Rayonix SX165	 PixelSize= 3.950e-05, 3.950e-05 m
#    Detector has a mask: True
#    Detector has a dark current: False
#    detector has a flat field: False
#
# Wavelength: 1.12713e-10 m
# Mask applied: from detector
# Dark current applied: False
# Flat field applied: False
# Polarization factor: None
# Normalization factor: 1.0
# --> ROCK\\WAM39B_integrated\wam39b_rampe_3_xrd_000011_integrated.dat
#       2th_deg             I
  2.502596e+01    4.418917e+03
  2.511750e+01    1.809801e+04
  2.520905e+01    1.837056e+04
  2.530059e+01    1.846049e+04
  2.539213e+01    1.794028e+04
  2.548367e+01    1.786296e+04
  2.557521e+01    1.789644e+04
  2.566675e+01    1.817512e+04
  2.575829e+01    1.856493e+04
  2.584984e+01    1.870736e+04
  2.594138e+01    1.846208e+04
  2.603292e+01    1.815429e+04
  2.612446e+01    1.782348e+04
  2.621600e+01    1.769622e+04
  2.630754e+01    1.829812e+04
  2.639908e+01    2.204852e+04
  2.649063e+01    3.047872e+04
  2.658217e+01    3.058944e+04
  2.667371e+01    4.024810e+04
  2.676525e+01    2.322804e+04
  2.685679e+01    1.741095e+04
  2.694833e+01    1.603025e+04
  2.703988e+01    1.552718e+04
  2.713142e+01    1.524994e+04
  2.722296e+01    1.499848e+04
  2.731450e+01    1.481598e+04
  2.740604e+01    1.462451e+04
  2.749758e+01    1.450362e+04
  2.758912e+01    1.442458e+04
  2.768067e+01    1.436855e+04
  2.777221e+01    1.434628e+04
  2.786375e+01    1.448777e+04
  2.795529e+01    1.483664e+04
  2.804683e+01    1.671263e+04
  2.813837e+01    1.972875e+04
  2.822991e+01    1.572567e+04
  2.832146e+01    1.427758e+04
  2.841300e+01    1.358546e+04
  2.850454e+01    1.316617e+04
  2.859608e+01    1.285402e+04
  2.868762e+01    1.260760e+04
  2.877916e+01    1.239797e+04
  2.887070e+01    1.222430e+04
  2.896225e+01    1.209807e+04
  2.905379e+01    1.202533e+04
  2.914533e+01    1.198639e+04
  2.923687e+01    1.181883e+04
  2.932841e+01    1.155089e+04
  2.941995e+01    1.133386e+04
  2.951149e+01    1.120218e+04
  2.960304e+01    1.165993e+04
  2.969458e+01    1.265231e+04
  2.978612e+01    1.104563e+04
  2.987766e+01    1.056438e+04
  2.996920e+01    1.042793e+04
  3.006074e+01    1.035382e+04
  3.015228e+01    1.029603e+04
  3.024383e+01    1.025838e+04
  3.033537e+01    1.024118e+04
  3.042691e+01    1.028575e+04
  3.051845e+01    1.043676e+04
  3.060999e+01    1.092223e+04
  3.070153e+01    1.298989e+04
  3.079308e+01    2.299073e+04
  3.088462e+01    4.132352e+04
  3.097616e+01    2.588013e+04
  3.106770e+01    1.776517e+04
  3.115924e+01    2.845152e+04
  3.125078e+01    1.605311e+04
  3.134232e+01    1.059608e+04
  3.143387e+01    9.760992e+03
  3.152541e+01    9.457470e+03
  3.161695e+01    9.297484e+03
  3.170849e+01    9.188118e+03
  3.180003e+01    9.091422e+03
  3.189157e+01    9.030493e+03
  3.198311e+01    8.979941e+03
  3.207466e+01    8.948368e+03
  3.216620e+01    8.935056e+03
  3.225774e+01    8.922869e+03
  3.234928e+01    8.842568e+03
  3.244082e+01    8.824260e+03
  3.253236e+01    9.571946e+03
  3.262390e+01    1.002750e+04
  3.271545e+01    8.790983e+03
  3.280699e+01    8.601474e+03
  3.289853e+01    8.584693e+03
  3.299007e+01    8.489930e+03
  3.308161e+01    8.339461e+03
  3.317315e+01    8.237419e+03
  3.326469e+01    8.173198e+03
  3.335624e+01    8.135634e+03
  3.344778e+01    8.110898e+03
  3.353932e+01    8.088235e+03
  3.363086e+01    8.087961e+03
  3.372240e+01    8.204879e+03
  3.381394e+01    8.887659e+03
  3.390549e+01    1.550496e+04
  3.399703e+01    1.859484e+04
  3.408857e+01    9.451878e+03
  3.418011e+01    8.069345e+03
  3.427165e+01    7.804956e+03
  3.436319e+01    7.686130e+03
  3.445473e+01    7.623610e+03
  3.454628e+01    7.578830e+03
  3.463782e+01    7.556350e+03
  3.472936e+01    7.558564e+03
  3.482090e+01    7.561433e+03
  3.491244e+01    7.579655e+03
  3.500398e+01    7.598132e+03
  3.509552e+01    7.563230e+03
  3.518707e+01    7.446970e+03
  3.527861e+01    7.315463e+03
  3.537015e+01    7.217643e+03
  3.546169e+01    7.129481e+03
  3.555323e+01    7.064142e+03
  3.564477e+01    7.030932e+03
  3.573631e+01    7.007145e+03
  3.582786e+01    6.985633e+03
  3.591940e+01    6.978960e+03
  3.601094e+01    6.980360e+03
  3.610248e+01    6.987191e+03
  3.619402e+01    7.010660e+03
  3.628556e+01    7.046494e+03
  3.637710e+01    7.186626e+03
  3.646865e+01    8.246410e+03
  3.656019e+01    1.240168e+04
  3.665173e+01    8.665806e+03
  3.674327e+01    7.274286e+03
  3.683481e+01    7.122344e+03
  3.692635e+01    7.092953e+03
  3.701790e+01    7.109641e+03
  3.710944e+01    7.130099e+03
  3.720098e+01    7.187979e+03
  3.729252e+01    7.256419e+03
  3.738406e+01    7.391476e+03
  3.747560e+01    7.653502e+03
  3.756714e+01    8.379471e+03
  3.765869e+01    1.170194e+04
  3.775023e+01    4.374770e+04
  3.784177e+01    5.744631e+04
  3.793331e+01    1.491092e+04
  3.802485e+01    8.871631e+03
  3.811639e+01    7.857498e+03
  3.820793e+01    7.498536e+03
  3.829948e+01    7.343471e+03
  3.839102e+01    7.262574e+03
  3.848256e+01    7.229204e+03
  3.857410e+01    7.210128e+03
  3.866564e+01    7.213469e+03
  3.875718e+01    7.225095e+03
  3.884872e+01    7.282150e+03
  3.894027e+01    8.145107e+03
  3.903181e+01    9.473754e+03
  3.912335e+01    7.549514e+03
  3.921489e+01    7.134342e+03
  3.930643e+01    7.051772e+03
  3.939797e+01    7.017850e+03
  3.948951e+01    6.991938e+03
  3.958106e+01    6.987026e+03
  3.967260e+01    6.989418e+03
  3.976414e+01    6.956370e+03
  3.985568e+01    6.923940e+03
  3.994722e+01    6.881282e+03
  4.003876e+01    6.863640e+03
  4.013031e+01    7.174402e+03
  4.022185e+01    7.321783e+03
  4.031339e+01    6.842992e+03
  4.040493e+01    6.756762e+03
  4.049647e+01    6.726044e+03
  4.058801e+01    6.705315e+03
  4.067955e+01    6.702927e+03
  4.077110e+01    6.688941e+03
  4.086264e+01    6.687762e+03
  4.095418e+01    6.702592e+03
  4.104572e+01    6.744370e+03
  4.113726e+01    6.884739e+03
  4.122880e+01    7.853535e+03
  4.132034e+01    1.337849e+04
  4.141189e+01    9.553964e+03
  4.150343e+01    7.114366e+03
  4.159497e+01    6.885235e+03
  4.168651e+01    6.858330e+03
  4.177805e+01    6.802496e+03
  4.186959e+01    6.756219e+03
  4.196113e+01    6.731238e+03
  4.205268e+01    6.728215e+03
  4.214422e+01    6.781467e+03
  4.223576e+01    6.860384e+03
  4.232730e+01    6.998377e+03
  4.241884e+01    7.962441e+03
  4.251038e+01    7.621907e+03
  4.260192e+01    6.703743e+03
  4.269347e+01    6.553328e+03
  4.278501e+01    6.512954e+03
  4.287655e+01    6.479716e+03
  4.296809e+01    6.482279e+03
  4.305963e+01    6.482385e+03
  4.315117e+01    6.490412e+03
  4.324272e+01    6.532242e+03
  4.333426e+01    6.639945e+03
  4.342580e+01    7.111133e+03
  4.351734e+01    1.112767e+04
  4.360888e+01    1.013228e+04
  4.370042e+01    7.043556e+03
  4.379196e+01    6.755950e+03
  4.388351e+01    6.883899e+03
  4.397505e+01    7.297429e+03
  4.406659e+01    8.928179e+03
  4.415813e+01    1.590936e+04
  4.424967e+01    1.981417e+04
  4.434121e+01    1.130143e+04
  4.443275e+01    8.615252e+03
  4.452430e+01    1.148262e+04
  4.461584e+01    3.024253e+04
  4.470738e+01    1.616970e+04
  4.479892e+01    7.885866e+03
  4.489046e+01    6.856347e+03
  4.498200e+01    6.597586e+03
  4.507354e+01    6.475057e+03
  4.516509e+01    6.420396e+03
  4.525663e+01    6.387855e+03
  4.534817e+01    6.401328e+03
  4.543971e+01    6.448583e+03
  4.553125e+01    6.806345e+03
  4.562279e+01    1.003634e+04
  4.571433e+01    1.225809e+04
  4.580588e+01    7.328139e+03
  4.589742e+01    6.510903e+03
  4.598896e+01    6.399587e+03
  4.608050e+01    6.393675e+03
  4.617204e+01    6.424861e+03
  4.626358e+01    6.457998e+03
  4.635513e+01    6.383683e+03
  4.644667e+01    6.335280e+03
  4.653821e+01    6.363270e+03
  4.662975e+01    6.888888e+03
  4.672129e+01    8.382066e+03
  4.681283e+01    6.963964e+03
  4.690437e+01    6.568122e+03
  4.699592e+01    6.569097e+03
  4.708746e+01    6.577211e+03
  4.717900e+01    6.568884e+03
  4.727054e+01    6.572582e+03
  4.736208e+01    6.634251e+03
  4.745362e+01    6.752627e+03
  4.754516e+01    7.043984e+03
  4.763671e+01    7.588035e+03
  4.772825e+01    8.451606e+03
  4.781979e+01    7.091112e+03
  4.788844e+01    2.739731e+03