File: Output/ROCK_XRD/WAM39B_integrated/rampe3/wam39b_rampe_3_xrd_000009_integrated.dat
# == pyFAI calibration ==
# Distance Sample to Detector: 0.261615 m
# PONI: 2.023e-01, 2.348e-01 m
# Rotations: -0.026380 0.002005 0.000000 rad
#
# == Fit2d calibration ==
# Distance Sample-beamCenter: 261.707 mm
# Center: x=6119.331, y=5134.776 pix
# Tilt: 1.516 deg  TiltPlanRot: 4.347 deg
#
# Detector Rayonix SX165	 PixelSize= 3.950e-05, 3.950e-05 m
#    Detector has a mask: True
#    Detector has a dark current: False
#    detector has a flat field: False
#
# Wavelength: 1.12713e-10 m
# Mask applied: from detector
# Dark current applied: False
# Flat field applied: False
# Polarization factor: None
# Normalization factor: 1.0
# --> ROCK\\WAM39B_integrated\wam39b_rampe_3_xrd_000009_integrated.dat
#       2th_deg             I
  2.502596e+01    4.612805e+03
  2.511750e+01    1.897302e+04
  2.520905e+01    1.926300e+04
  2.530059e+01    1.934050e+04
  2.539213e+01    1.878887e+04
  2.548367e+01    1.871104e+04
  2.557521e+01    1.871171e+04
  2.566675e+01    1.901312e+04
  2.575829e+01    1.944088e+04
  2.584984e+01    1.956383e+04
  2.594138e+01    1.932458e+04
  2.603292e+01    1.897450e+04
  2.612446e+01    1.862160e+04
  2.621600e+01    1.849712e+04
  2.630754e+01    1.912170e+04
  2.639908e+01    2.302352e+04
  2.649063e+01    3.222253e+04
  2.658217e+01    3.332154e+04
  2.667371e+01    4.120892e+04
  2.676525e+01    2.345876e+04
  2.685679e+01    1.804750e+04
  2.694833e+01    1.673630e+04
  2.703988e+01    1.623410e+04
  2.713142e+01    1.595204e+04
  2.722296e+01    1.567742e+04
  2.731450e+01    1.549131e+04
  2.740604e+01    1.529573e+04
  2.749758e+01    1.517463e+04
  2.758912e+01    1.508726e+04
  2.768067e+01    1.502074e+04
  2.777221e+01    1.502062e+04
  2.786375e+01    1.514389e+04
  2.795529e+01    1.553001e+04
  2.804683e+01    1.745039e+04
  2.813837e+01    2.069587e+04
  2.822991e+01    1.644932e+04
  2.832146e+01    1.489416e+04
  2.841300e+01    1.417063e+04
  2.850454e+01    1.373836e+04
  2.859608e+01    1.343701e+04
  2.868762e+01    1.317249e+04
  2.877916e+01    1.295249e+04
  2.887070e+01    1.277530e+04
  2.896225e+01    1.263992e+04
  2.905379e+01    1.257589e+04
  2.914533e+01    1.251831e+04
  2.923687e+01    1.234501e+04
  2.932841e+01    1.206118e+04
  2.941995e+01    1.182696e+04
  2.951149e+01    1.169203e+04
  2.960304e+01    1.213650e+04
  2.969458e+01    1.321898e+04
  2.978612e+01    1.154214e+04
  2.987766e+01    1.103463e+04
  2.996920e+01    1.089488e+04
  3.006074e+01    1.080331e+04
  3.015228e+01    1.074976e+04
  3.024383e+01    1.070651e+04
  3.033537e+01    1.070106e+04
  3.042691e+01    1.073692e+04
  3.051845e+01    1.090480e+04
  3.060999e+01    1.144884e+04
  3.070153e+01    1.377992e+04
  3.079308e+01    2.563081e+04
  3.088462e+01    4.366432e+04
  3.097616e+01    2.520827e+04
  3.106770e+01    1.785875e+04
  3.115924e+01    2.951826e+04
  3.125078e+01    1.689211e+04
  3.134232e+01    1.106086e+04
  3.143387e+01    1.019444e+04
  3.152541e+01    9.867529e+03
  3.161695e+01    9.691148e+03
  3.170849e+01    9.585468e+03
  3.180003e+01    9.489283e+03
  3.189157e+01    9.412343e+03
  3.198311e+01    9.367433e+03
  3.207466e+01    9.339970e+03
  3.216620e+01    9.324229e+03
  3.225774e+01    9.301211e+03
  3.234928e+01    9.237530e+03
  3.244082e+01    9.206999e+03
  3.253236e+01    9.960327e+03
  3.262390e+01    1.047895e+04
  3.271545e+01    9.167608e+03
  3.280699e+01    8.972976e+03
  3.289853e+01    8.951960e+03
  3.299007e+01    8.860035e+03
  3.308161e+01    8.700141e+03
  3.317315e+01    8.588435e+03
  3.326469e+01    8.522924e+03
  3.335624e+01    8.483901e+03
  3.344778e+01    8.455193e+03
  3.353932e+01    8.435012e+03
  3.363086e+01    8.434632e+03
  3.372240e+01    8.553045e+03
  3.381394e+01    9.234731e+03
  3.390549e+01    1.592041e+04
  3.399703e+01    1.957271e+04
  3.408857e+01    9.906371e+03
  3.418011e+01    8.421744e+03
  3.427165e+01    8.139437e+03
  3.436319e+01    8.021315e+03
  3.445473e+01    7.945507e+03
  3.454628e+01    7.905131e+03
  3.463782e+01    7.878454e+03
  3.472936e+01    7.873778e+03
  3.482090e+01    7.873102e+03
  3.491244e+01    7.897821e+03
  3.500398e+01    7.920420e+03
  3.509552e+01    7.885863e+03
  3.518707e+01    7.771774e+03
  3.527861e+01    7.643546e+03
  3.537015e+01    7.534366e+03
  3.546169e+01    7.436953e+03
  3.555323e+01    7.371281e+03
  3.564477e+01    7.338490e+03
  3.573631e+01    7.304909e+03
  3.582786e+01    7.284489e+03
  3.591940e+01    7.277500e+03
  3.601094e+01    7.277595e+03
  3.610248e+01    7.286907e+03
  3.619402e+01    7.308704e+03
  3.628556e+01    7.352154e+03
  3.637710e+01    7.492725e+03
  3.646865e+01    8.538271e+03
  3.656019e+01    1.290746e+04
  3.665173e+01    9.098618e+03
  3.674327e+01    7.596829e+03
  3.683481e+01    7.443641e+03
  3.692635e+01    7.410500e+03
  3.701790e+01    7.421855e+03
  3.710944e+01    7.447148e+03
  3.720098e+01    7.500784e+03
  3.729252e+01    7.581437e+03
  3.738406e+01    7.707055e+03
  3.747560e+01    7.986844e+03
  3.756714e+01    8.715119e+03
  3.765869e+01    1.203767e+04
  3.775023e+01    4.423947e+04
  3.784177e+01    6.096198e+04
  3.793331e+01    1.582791e+04
  3.802485e+01    9.302352e+03
  3.811639e+01    8.220367e+03
  3.820793e+01    7.834450e+03
  3.829948e+01    7.675192e+03
  3.839102e+01    7.585801e+03
  3.848256e+01    7.550215e+03
  3.857410e+01    7.539567e+03
  3.866564e+01    7.530880e+03
  3.875718e+01    7.546031e+03
  3.884872e+01    7.611903e+03
  3.894027e+01    8.457088e+03
  3.903181e+01    9.910810e+03
  3.912335e+01    7.897882e+03
  3.921489e+01    7.453813e+03
  3.930643e+01    7.372924e+03
  3.939797e+01    7.339655e+03
  3.948951e+01    7.302538e+03
  3.958106e+01    7.299234e+03
  3.967260e+01    7.303611e+03
  3.976414e+01    7.258334e+03
  3.985568e+01    7.234188e+03
  3.994722e+01    7.189878e+03
  4.003876e+01    7.176435e+03
  4.013031e+01    7.472119e+03
  4.022185e+01    7.677867e+03
  4.031339e+01    7.161524e+03
  4.040493e+01    7.056720e+03
  4.049647e+01    7.025197e+03
  4.058801e+01    7.020221e+03
  4.067955e+01    6.997640e+03
  4.077110e+01    6.992450e+03
  4.086264e+01    6.994361e+03
  4.095418e+01    7.004541e+03
  4.104572e+01    7.045430e+03
  4.113726e+01    7.178248e+03
  4.122880e+01    8.140822e+03
  4.132034e+01    1.386293e+04
  4.141189e+01    1.009455e+04
  4.150343e+01    7.454482e+03
  4.159497e+01    7.198767e+03
  4.168651e+01    7.159122e+03
  4.177805e+01    7.100537e+03
  4.186959e+01    7.044598e+03
  4.196113e+01    7.023974e+03
  4.205268e+01    7.024658e+03
  4.214422e+01    7.072197e+03
  4.223576e+01    7.172602e+03
  4.232730e+01    7.300238e+03
  4.241884e+01    8.282133e+03
  4.251038e+01    7.995778e+03
  4.260192e+01    7.012116e+03
  4.269347e+01    6.849567e+03
  4.278501e+01    6.804082e+03
  4.287655e+01    6.779610e+03
  4.296809e+01    6.780918e+03
  4.305963e+01    6.768088e+03
  4.315117e+01    6.780030e+03
  4.324272e+01    6.826493e+03
  4.333426e+01    6.934964e+03
  4.342580e+01    7.402932e+03
  4.351734e+01    1.145217e+04
  4.360888e+01    1.069788e+04
  4.370042e+01    7.380254e+03
  4.379196e+01    7.074163e+03
  4.388351e+01    7.211794e+03
  4.397505e+01    7.666993e+03
  4.406659e+01    9.677149e+03
  4.415813e+01    1.811571e+04
  4.424967e+01    1.962731e+04
  4.434121e+01    1.101321e+04
  4.443275e+01    8.776191e+03
  4.452430e+01    1.164834e+04
  4.461584e+01    3.118803e+04
  4.470738e+01    1.728517e+04
  4.479892e+01    8.270493e+03
  4.489046e+01    7.162161e+03
  4.498200e+01    6.892899e+03
  4.507354e+01    6.769003e+03
  4.516509e+01    6.712604e+03
  4.525663e+01    6.677977e+03
  4.534817e+01    6.690163e+03
  4.543971e+01    6.741725e+03
  4.553125e+01    7.093325e+03
  4.562279e+01    1.027126e+04
  4.571433e+01    1.289197e+04
  4.580588e+01    7.694666e+03
  4.589742e+01    6.808196e+03
  4.598896e+01    6.689560e+03
  4.608050e+01    6.676304e+03
  4.617204e+01    6.717155e+03
  4.626358e+01    6.747020e+03
  4.635513e+01    6.674876e+03
  4.644667e+01    6.606883e+03
  4.653821e+01    6.647903e+03
  4.662975e+01    7.157407e+03
  4.672129e+01    8.752129e+03
  4.681283e+01    7.306623e+03
  4.690437e+01    6.860695e+03
  4.699592e+01    6.861058e+03
  4.708746e+01    6.880105e+03
  4.717900e+01    6.856120e+03
  4.727054e+01    6.881532e+03
  4.736208e+01    6.928698e+03
  4.745362e+01    7.040335e+03
  4.754516e+01    7.356702e+03
  4.763671e+01    7.912954e+03
  4.772825e+01    8.863564e+03
  4.781979e+01    7.457981e+03
  4.788844e+01    2.875603e+03