File: Output/ROCK_XRD/WAM39B_integrated/rampe1/wam39b_rampe_1_xrd_000011_integrated.dat
# == pyFAI calibration ==
# Distance Sample to Detector: 0.261615 m
# PONI: 2.023e-01, 2.348e-01 m
# Rotations: -0.026380 0.002005 0.000000 rad
#
# == Fit2d calibration ==
# Distance Sample-beamCenter: 261.707 mm
# Center: x=6119.331, y=5134.776 pix
# Tilt: 1.516 deg  TiltPlanRot: 4.347 deg
#
# Detector Rayonix SX165	 PixelSize= 3.950e-05, 3.950e-05 m
#    Detector has a mask: True
#    Detector has a dark current: False
#    detector has a flat field: False
#
# Wavelength: 1.12713e-10 m
# Mask applied: from detector
# Dark current applied: False
# Flat field applied: False
# Polarization factor: None
# Normalization factor: 1.0
# --> ROCK\\WAM39B_integrated\wam39b_rampe_1_xrd_000011_integrated.dat
#       2th_deg             I
  2.502596e+01    5.415393e+03
  2.511750e+01    2.222427e+04
  2.520905e+01    2.258949e+04
  2.530059e+01    2.277116e+04
  2.539213e+01    2.237371e+04
  2.548367e+01    2.271132e+04
  2.557521e+01    2.350112e+04
  2.566675e+01    2.468963e+04
  2.575829e+01    2.512038e+04
  2.584984e+01    2.455338e+04
  2.594138e+01    2.367773e+04
  2.603292e+01    2.354631e+04
  2.612446e+01    2.399278e+04
  2.621600e+01    2.510969e+04
  2.630754e+01    2.748529e+04
  2.639908e+01    3.519295e+04
  2.649063e+01    3.407658e+04
  2.658217e+01    2.714185e+04
  2.667371e+01    2.579138e+04
  2.676525e+01    2.517800e+04
  2.685679e+01    2.426212e+04
  2.694833e+01    2.288646e+04
  2.703988e+01    2.151033e+04
  2.713142e+01    2.048540e+04
  2.722296e+01    1.972094e+04
  2.731450e+01    1.920576e+04
  2.740604e+01    1.884035e+04
  2.749758e+01    1.864469e+04
  2.758912e+01    1.856290e+04
  2.768067e+01    1.861785e+04
  2.777221e+01    1.886704e+04
  2.786375e+01    1.962798e+04
  2.795529e+01    2.122050e+04
  2.804683e+01    2.488556e+04
  2.813837e+01    2.276444e+04
  2.822991e+01    1.877257e+04
  2.832146e+01    1.733605e+04
  2.841300e+01    1.654273e+04
  2.850454e+01    1.606166e+04
  2.859608e+01    1.571542e+04
  2.868762e+01    1.539165e+04
  2.877916e+01    1.511792e+04
  2.887070e+01    1.487340e+04
  2.896225e+01    1.463497e+04
  2.905379e+01    1.441183e+04
  2.914533e+01    1.420324e+04
  2.923687e+01    1.404673e+04
  2.932841e+01    1.390127e+04
  2.941995e+01    1.379145e+04
  2.951149e+01    1.398221e+04
  2.960304e+01    1.532352e+04
  2.969458e+01    1.464997e+04
  2.978612e+01    1.342009e+04
  2.987766e+01    1.313824e+04
  2.996920e+01    1.303710e+04
  3.006074e+01    1.302431e+04
  3.015228e+01    1.306051e+04
  3.024383e+01    1.309979e+04
  3.033537e+01    1.325542e+04
  3.042691e+01    1.348980e+04
  3.051845e+01    1.386112e+04
  3.060999e+01    1.442623e+04
  3.070153e+01    1.532140e+04
  3.079308e+01    1.660399e+04
  3.088462e+01    1.826184e+04
  3.097616e+01    2.121902e+04
  3.106770e+01    3.287877e+04
  3.115924e+01    3.370954e+04
  3.125078e+01    1.939725e+04
  3.134232e+01    1.550481e+04
  3.143387e+01    1.408517e+04
  3.152541e+01    1.328091e+04
  3.161695e+01    1.279654e+04
  3.170849e+01    1.245601e+04
  3.180003e+01    1.220051e+04
  3.189157e+01    1.200473e+04
  3.198311e+01    1.182852e+04
  3.207466e+01    1.168448e+04
  3.216620e+01    1.155194e+04
  3.225774e+01    1.143716e+04
  3.234928e+01    1.138644e+04
  3.244082e+01    1.172922e+04
  3.253236e+01    1.294814e+04
  3.262390e+01    1.170659e+04
  3.271545e+01    1.095262e+04
  3.280699e+01    1.075241e+04
  3.289853e+01    1.063741e+04
  3.299007e+01    1.054976e+04
  3.308161e+01    1.048428e+04
  3.317315e+01    1.044181e+04
  3.326469e+01    1.041709e+04
  3.335624e+01    1.040533e+04
  3.344778e+01    1.039655e+04
  3.353932e+01    1.042950e+04
  3.363086e+01    1.058586e+04
  3.372240e+01    1.123725e+04
  3.381394e+01    1.532118e+04
  3.390549e+01    2.551077e+04
  3.399703e+01    1.590187e+04
  3.408857e+01    1.127849e+04
  3.418011e+01    1.051322e+04
  3.427165e+01    1.030841e+04
  3.436319e+01    1.016675e+04
  3.445473e+01    1.001637e+04
  3.454628e+01    9.895013e+03
  3.463782e+01    9.781771e+03
  3.472936e+01    9.736734e+03
  3.482090e+01    9.716247e+03
  3.491244e+01    9.763045e+03
  3.500398e+01    9.863457e+03
  3.509552e+01    9.991076e+03
  3.518707e+01    9.934603e+03
  3.527861e+01    9.719640e+03
  3.537015e+01    9.518493e+03
  3.546169e+01    9.358227e+03
  3.555323e+01    9.255049e+03
  3.564477e+01    9.165007e+03
  3.573631e+01    9.106812e+03
  3.582786e+01    9.077547e+03
  3.591940e+01    9.060663e+03
  3.601094e+01    9.074853e+03
  3.610248e+01    9.095907e+03
  3.619402e+01    9.165042e+03
  3.628556e+01    9.332658e+03
  3.637710e+01    1.012525e+04
  3.646865e+01    1.414135e+04
  3.656019e+01    1.316744e+04
  3.665173e+01    9.921907e+03
  3.674327e+01    9.390967e+03
  3.683481e+01    9.295896e+03
  3.692635e+01    9.291537e+03
  3.701790e+01    9.330050e+03
  3.710944e+01    9.427500e+03
  3.720098e+01    9.606548e+03
  3.729252e+01    9.852336e+03
  3.738406e+01    1.030537e+04
  3.747560e+01    1.136444e+04
  3.756714e+01    1.495381e+04
  3.765869e+01    3.763317e+04
  3.775023e+01    8.165929e+04
  3.784177e+01    3.315466e+04
  3.793331e+01    1.450758e+04
  3.802485e+01    1.127576e+04
  3.811639e+01    1.029854e+04
  3.820793e+01    9.868823e+03
  3.829948e+01    9.672750e+03
  3.839102e+01    9.565202e+03
  3.848256e+01    9.490439e+03
  3.857410e+01    9.434333e+03
  3.866564e+01    9.394104e+03
  3.875718e+01    9.449167e+03
  3.884872e+01    1.004411e+04
  3.894027e+01    1.201249e+04
  3.903181e+01    1.040172e+04
  3.912335e+01    9.402145e+03
  3.921489e+01    9.232127e+03
  3.930643e+01    9.171263e+03
  3.939797e+01    9.129066e+03
  3.948951e+01    9.096929e+03
  3.958106e+01    9.071574e+03
  3.967260e+01    9.051973e+03
  3.976414e+01    9.028073e+03
  3.985568e+01    9.026674e+03
  3.994722e+01    9.072391e+03
  4.003876e+01    9.296970e+03
  4.013031e+01    9.769456e+03
  4.022185e+01    9.335414e+03
  4.031339e+01    9.263639e+03
  4.040493e+01    9.376398e+03
  4.049647e+01    9.430720e+03
  4.058801e+01    9.352040e+03
  4.067955e+01    9.198311e+03
  4.077110e+01    9.072139e+03
  4.086264e+01    9.003364e+03
  4.095418e+01    9.021514e+03
  4.104572e+01    9.193017e+03
  4.113726e+01    1.013118e+04
  4.122880e+01    1.520020e+04
  4.132034e+01    1.441660e+04
  4.141189e+01    1.010152e+04
  4.150343e+01    9.385866e+03
  4.159497e+01    9.233873e+03
  4.168651e+01    9.120219e+03
  4.177805e+01    9.021121e+03
  4.186959e+01    8.986155e+03
  4.196113e+01    8.964969e+03
  4.205268e+01    8.980145e+03
  4.214422e+01    8.996207e+03
  4.223576e+01    9.124366e+03
  4.232730e+01    9.951716e+03
  4.241884e+01    1.035073e+04
  4.251038e+01    9.125340e+03
  4.260192e+01    8.794969e+03
  4.269347e+01    8.698178e+03
  4.278501e+01    8.630648e+03
  4.287655e+01    8.598673e+03
  4.296809e+01    8.595144e+03
  4.305963e+01    8.615994e+03
  4.315117e+01    8.674909e+03
  4.324272e+01    8.837916e+03
  4.333426e+01    9.436331e+03
  4.342580e+01    1.300113e+04
  4.351734e+01    1.440562e+04
  4.360888e+01    1.011931e+04
  4.370042e+01    9.361403e+03
  4.379196e+01    9.449513e+03
  4.388351e+01    9.725712e+03
  4.397505e+01    9.974934e+03
  4.406659e+01    1.024658e+04
  4.415813e+01    1.068718e+04
  4.424967e+01    1.134672e+04
  4.434121e+01    1.247894e+04
  4.443275e+01    1.657463e+04
  4.452430e+01    3.518704e+04
  4.461584e+01    2.782858e+04
  4.470738e+01    1.361092e+04
  4.479892e+01    1.085083e+04
  4.489046e+01    9.980427e+03
  4.498200e+01    9.539036e+03
  4.507354e+01    9.254212e+03
  4.516509e+01    9.071309e+03
  4.525663e+01    8.979394e+03
  4.534817e+01    9.024672e+03
  4.543971e+01    9.476562e+03
  4.553125e+01    1.246191e+04
  4.562279e+01    1.627970e+04
  4.571433e+01    1.091351e+04
  4.580588e+01    9.188091e+03
  4.589742e+01    8.844585e+03
  4.598896e+01    8.717648e+03
  4.608050e+01    8.668063e+03
  4.617204e+01    8.623832e+03
  4.626358e+01    8.598059e+03
  4.635513e+01    8.584140e+03
  4.644667e+01    8.650553e+03
  4.653821e+01    9.219969e+03
  4.662975e+01    1.086612e+04
  4.672129e+01    9.587866e+03
  4.681283e+01    8.830481e+03
  4.690437e+01    8.754486e+03
  4.699592e+01    8.790029e+03
  4.708746e+01    8.771512e+03
  4.717900e+01    8.675660e+03
  4.727054e+01    8.645492e+03
  4.736208e+01    8.697959e+03
  4.745362e+01    8.875027e+03
  4.754516e+01    9.534189e+03
  4.763671e+01    1.095005e+04
  4.772825e+01    9.902287e+03
  4.781979e+01    8.906894e+03
  4.788844e+01    3.580777e+03