File: Output/ROCK_XRD/WAM39B_integrated/rampe1/wam39b_rampe_1_xrd_000014_integrated.dat
# == pyFAI calibration ==
# Distance Sample to Detector: 0.261615 m
# PONI: 2.023e-01, 2.348e-01 m
# Rotations: -0.026380 0.002005 0.000000 rad
#
# == Fit2d calibration ==
# Distance Sample-beamCenter: 261.707 mm
# Center: x=6119.331, y=5134.776 pix
# Tilt: 1.516 deg  TiltPlanRot: 4.347 deg
#
# Detector Rayonix SX165	 PixelSize= 3.950e-05, 3.950e-05 m
#    Detector has a mask: True
#    Detector has a dark current: False
#    detector has a flat field: False
#
# Wavelength: 1.12713e-10 m
# Mask applied: from detector
# Dark current applied: False
# Flat field applied: False
# Polarization factor: None
# Normalization factor: 1.0
# --> ROCK\\WAM39B_integrated\wam39b_rampe_1_xrd_000014_integrated.dat
#       2th_deg             I
  2.502596e+01    5.056281e+03
  2.511750e+01    2.077595e+04
  2.520905e+01    2.110321e+04
  2.530059e+01    2.132941e+04
  2.539213e+01    2.097254e+04
  2.548367e+01    2.135766e+04
  2.557521e+01    2.226288e+04
  2.566675e+01    2.324568e+04
  2.575829e+01    2.353811e+04
  2.584984e+01    2.281153e+04
  2.594138e+01    2.205318e+04
  2.603292e+01    2.208447e+04
  2.612446e+01    2.267352e+04
  2.621600e+01    2.390928e+04
  2.630754e+01    2.699967e+04
  2.639908e+01    3.484679e+04
  2.649063e+01    2.967033e+04
  2.658217e+01    2.497250e+04
  2.667371e+01    2.408252e+04
  2.676525e+01    2.340062e+04
  2.685679e+01    2.229818e+04
  2.694833e+01    2.093473e+04
  2.703988e+01    1.974174e+04
  2.713142e+01    1.890211e+04
  2.722296e+01    1.827222e+04
  2.731450e+01    1.785556e+04
  2.740604e+01    1.753379e+04
  2.749758e+01    1.740660e+04
  2.758912e+01    1.736947e+04
  2.768067e+01    1.748999e+04
  2.777221e+01    1.784615e+04
  2.786375e+01    1.876298e+04
  2.795529e+01    2.067199e+04
  2.804683e+01    2.382173e+04
  2.813837e+01    1.986534e+04
  2.822991e+01    1.699926e+04
  2.832146e+01    1.594013e+04
  2.841300e+01    1.531554e+04
  2.850454e+01    1.491296e+04
  2.859608e+01    1.461717e+04
  2.868762e+01    1.432474e+04
  2.877916e+01    1.409864e+04
  2.887070e+01    1.387898e+04
  2.896225e+01    1.365580e+04
  2.905379e+01    1.345088e+04
  2.914533e+01    1.326779e+04
  2.923687e+01    1.312993e+04
  2.932841e+01    1.299148e+04
  2.941995e+01    1.294620e+04
  2.951149e+01    1.332835e+04
  2.960304e+01    1.455066e+04
  2.969458e+01    1.322619e+04
  2.978612e+01    1.246355e+04
  2.987766e+01    1.228094e+04
  2.996920e+01    1.221524e+04
  3.006074e+01    1.221410e+04
  3.015228e+01    1.224745e+04
  3.024383e+01    1.232535e+04
  3.033537e+01    1.247272e+04
  3.042691e+01    1.275767e+04
  3.051845e+01    1.317513e+04
  3.060999e+01    1.383214e+04
  3.070153e+01    1.482336e+04
  3.079308e+01    1.616512e+04
  3.088462e+01    1.784298e+04
  3.097616e+01    2.179476e+04
  3.106770e+01    3.472957e+04
  3.115924e+01    2.601968e+04
  3.125078e+01    1.630667e+04
  3.134232e+01    1.386672e+04
  3.143387e+01    1.283084e+04
  3.152541e+01    1.222604e+04
  3.161695e+01    1.183440e+04
  3.170849e+01    1.156004e+04
  3.180003e+01    1.133518e+04
  3.189157e+01    1.116471e+04
  3.198311e+01    1.102047e+04
  3.207466e+01    1.089207e+04
  3.216620e+01    1.077473e+04
  3.225774e+01    1.066766e+04
  3.234928e+01    1.067877e+04
  3.244082e+01    1.133313e+04
  3.253236e+01    1.197014e+04
  3.262390e+01    1.059149e+04
  3.271545e+01    1.016895e+04
  3.280699e+01    1.002233e+04
  3.289853e+01    9.937541e+03
  3.299007e+01    9.851905e+03
  3.308161e+01    9.792725e+03
  3.317315e+01    9.759265e+03
  3.326469e+01    9.739884e+03
  3.335624e+01    9.734152e+03
  3.344778e+01    9.735389e+03
  3.353932e+01    9.782369e+03
  3.363086e+01    1.001789e+04
  3.372240e+01    1.108392e+04
  3.381394e+01    1.782224e+04
  3.390549e+01    2.230636e+04
  3.399703e+01    1.245155e+04
  3.408857e+01    1.017277e+04
  3.418011e+01    9.743069e+03
  3.427165e+01    9.597898e+03
  3.436319e+01    9.485897e+03
  3.445473e+01    9.345885e+03
  3.454628e+01    9.226348e+03
  3.463782e+01    9.146326e+03
  3.472936e+01    9.106283e+03
  3.482090e+01    9.102854e+03
  3.491244e+01    9.165874e+03
  3.500398e+01    9.280353e+03
  3.509552e+01    9.363069e+03
  3.518707e+01    9.263868e+03
  3.527861e+01    9.045052e+03
  3.537015e+01    8.858871e+03
  3.546169e+01    8.727178e+03
  3.555323e+01    8.627584e+03
  3.564477e+01    8.560506e+03
  3.573631e+01    8.517964e+03
  3.582786e+01    8.496080e+03
  3.591940e+01    8.485334e+03
  3.601094e+01    8.492173e+03
  3.610248e+01    8.527896e+03
  3.619402e+01    8.610326e+03
  3.628556e+01    8.857183e+03
  3.637710e+01    1.032785e+04
  3.646865e+01    1.411501e+04
  3.656019e+01    1.070236e+04
  3.665173e+01    8.984127e+03
  3.674327e+01    8.735799e+03
  3.683481e+01    8.693562e+03
  3.692635e+01    8.701321e+03
  3.701790e+01    8.753277e+03
  3.710944e+01    8.867962e+03
  3.720098e+01    9.066907e+03
  3.729252e+01    9.350052e+03
  3.738406e+01    9.908075e+03
  3.747560e+01    1.136301e+04
  3.756714e+01    1.766413e+04
  3.765869e+01    5.576186e+04
  3.775023e+01    6.360237e+04
  3.784177e+01    2.029308e+04
  3.793331e+01    1.189698e+04
  3.802485e+01    1.008506e+04
  3.811639e+01    9.461421e+03
  3.820793e+01    9.148997e+03
  3.829948e+01    9.010572e+03
  3.839102e+01    8.929783e+03
  3.848256e+01    8.864928e+03
  3.857410e+01    8.810352e+03
  3.866564e+01    8.803760e+03
  3.875718e+01    8.947819e+03
  3.884872e+01    1.009964e+04
  3.894027e+01    1.101328e+04
  3.903181e+01    9.176869e+03
  3.912335e+01    8.719136e+03
  3.921489e+01    8.614441e+03
  3.930643e+01    8.576834e+03
  3.939797e+01    8.552650e+03
  3.948951e+01    8.525586e+03
  3.958106e+01    8.504955e+03
  3.967260e+01    8.479812e+03
  3.976414e+01    8.462420e+03
  3.985568e+01    8.458577e+03
  3.994722e+01    8.540546e+03
  4.003876e+01    8.936071e+03
  4.013031e+01    9.018875e+03
  4.022185e+01    8.680170e+03
  4.031339e+01    8.724336e+03
  4.040493e+01    8.829025e+03
  4.049647e+01    8.834611e+03
  4.058801e+01    8.708128e+03
  4.067955e+01    8.561402e+03
  4.077110e+01    8.463803e+03
  4.086264e+01    8.434417e+03
  4.095418e+01    8.490714e+03
  4.104572e+01    8.809134e+03
  4.113726e+01    1.073827e+04
  4.122880e+01    1.557957e+04
  4.132034e+01    1.115898e+04
  4.141189e+01    9.051854e+03
  4.150343e+01    8.733663e+03
  4.159497e+01    8.580027e+03
  4.168651e+01    8.491947e+03
  4.177805e+01    8.422055e+03
  4.186959e+01    8.399731e+03
  4.196113e+01    8.401657e+03
  4.205268e+01    8.413900e+03
  4.214422e+01    8.463636e+03
  4.223576e+01    8.723414e+03
  4.232730e+01    9.795464e+03
  4.241884e+01    9.115955e+03
  4.251038e+01    8.363559e+03
  4.260192e+01    8.195646e+03
  4.269347e+01    8.134294e+03
  4.278501e+01    8.081677e+03
  4.287655e+01    8.064326e+03
  4.296809e+01    8.072899e+03
  4.305963e+01    8.100473e+03
  4.315117e+01    8.188259e+03
  4.324272e+01    8.436794e+03
  4.333426e+01    9.657556e+03
  4.342580e+01    1.411059e+04
  4.351734e+01    1.133780e+04
  4.360888e+01    8.971313e+03
  4.370042e+01    8.797053e+03
  4.379196e+01    8.995696e+03
  4.388351e+01    9.287620e+03
  4.397505e+01    9.516725e+03
  4.406659e+01    9.838255e+03
  4.415813e+01    1.034659e+04
  4.424967e+01    1.104620e+04
  4.434121e+01    1.262467e+04
  4.443275e+01    2.121216e+04
  4.452430e+01    3.519790e+04
  4.461584e+01    1.748881e+04
  4.470738e+01    1.099367e+04
  4.479892e+01    9.639775e+03
  4.489046e+01    9.091033e+03
  4.498200e+01    8.789935e+03
  4.507354e+01    8.575553e+03
  4.516509e+01    8.454112e+03
  4.525663e+01    8.421336e+03
  4.534817e+01    8.568341e+03
  4.543971e+01    9.542297e+03
  4.553125e+01    1.441171e+04
  4.562279e+01    1.295060e+04
  4.571433e+01    9.102541e+03
  4.580588e+01    8.399360e+03
  4.589742e+01    8.220421e+03
  4.598896e+01    8.155875e+03
  4.608050e+01    8.101991e+03
  4.617204e+01    8.057243e+03
  4.626358e+01    8.047907e+03
  4.635513e+01    8.048374e+03
  4.644667e+01    8.228107e+03
  4.653821e+01    9.396704e+03
  4.662975e+01    9.890506e+03
  4.672129e+01    8.458393e+03
  4.681283e+01    8.200009e+03
  4.690437e+01    8.191736e+03
  4.699592e+01    8.212181e+03
  4.708746e+01    8.153231e+03
  4.717900e+01    8.077308e+03
  4.727054e+01    8.063856e+03
  4.736208e+01    8.127186e+03
  4.745362e+01    8.386591e+03
  4.754516e+01    9.437894e+03
  4.763671e+01    1.008101e+04
  4.772825e+01    8.906973e+03
  4.781979e+01    8.319718e+03
  4.788844e+01    3.372451e+03