File: Output/ROCK_XRD/WAM39B_integrated/rampe1/wam39b_rampe_1_xrd_000022_integrated.dat
# == pyFAI calibration ==
# Distance Sample to Detector: 0.261615 m
# PONI: 2.023e-01, 2.348e-01 m
# Rotations: -0.026380 0.002005 0.000000 rad
#
# == Fit2d calibration ==
# Distance Sample-beamCenter: 261.707 mm
# Center: x=6119.331, y=5134.776 pix
# Tilt: 1.516 deg  TiltPlanRot: 4.347 deg
#
# Detector Rayonix SX165	 PixelSize= 3.950e-05, 3.950e-05 m
#    Detector has a mask: True
#    Detector has a dark current: False
#    detector has a flat field: False
#
# Wavelength: 1.12713e-10 m
# Mask applied: from detector
# Dark current applied: False
# Flat field applied: False
# Polarization factor: None
# Normalization factor: 1.0
# --> ROCK\\WAM39B_integrated\wam39b_rampe_1_xrd_000022_integrated.dat
#       2th_deg             I
  2.502596e+01    4.618272e+03
  2.511750e+01    1.883375e+04
  2.520905e+01    1.908093e+04
  2.530059e+01    1.922770e+04
  2.539213e+01    1.892405e+04
  2.548367e+01    1.949355e+04
  2.557521e+01    2.050628e+04
  2.566675e+01    2.119361e+04
  2.575829e+01    2.131275e+04
  2.584984e+01    1.973736e+04
  2.594138e+01    1.913635e+04
  2.603292e+01    1.951149e+04
  2.612446e+01    2.057103e+04
  2.621600e+01    2.302360e+04
  2.630754e+01    3.019715e+04
  2.639908e+01    3.250975e+04
  2.649063e+01    2.871469e+04
  2.658217e+01    2.771381e+04
  2.667371e+01    2.445998e+04
  2.676525e+01    2.088928e+04
  2.685679e+01    1.859686e+04
  2.694833e+01    1.735408e+04
  2.703988e+01    1.665317e+04
  2.713142e+01    1.625792e+04
  2.722296e+01    1.592783e+04
  2.731450e+01    1.572592e+04
  2.740604e+01    1.558948e+04
  2.749758e+01    1.558972e+04
  2.758912e+01    1.571409e+04
  2.768067e+01    1.605461e+04
  2.777221e+01    1.692715e+04
  2.786375e+01    1.918749e+04
  2.795529e+01    2.238276e+04
  2.804683e+01    1.959044e+04
  2.813837e+01    1.569080e+04
  2.822991e+01    1.451001e+04
  2.832146e+01    1.402806e+04
  2.841300e+01    1.369115e+04
  2.850454e+01    1.346629e+04
  2.859608e+01    1.328164e+04
  2.868762e+01    1.307774e+04
  2.877916e+01    1.290553e+04
  2.887070e+01    1.273103e+04
  2.896225e+01    1.254343e+04
  2.905379e+01    1.235698e+04
  2.914533e+01    1.219089e+04
  2.923687e+01    1.208657e+04
  2.932841e+01    1.200606e+04
  2.941995e+01    1.217833e+04
  2.951149e+01    1.322591e+04
  2.960304e+01    1.258404e+04
  2.969458e+01    1.160133e+04
  2.978612e+01    1.135228e+04
  2.987766e+01    1.123074e+04
  2.996920e+01    1.118313e+04
  3.006074e+01    1.118184e+04
  3.015228e+01    1.121794e+04
  3.024383e+01    1.131366e+04
  3.033537e+01    1.155872e+04
  3.042691e+01    1.206701e+04
  3.051845e+01    1.323028e+04
  3.060999e+01    1.594459e+04
  3.070153e+01    2.021428e+04
  3.079308e+01    2.222695e+04
  3.088462e+01    2.161132e+04
  3.097616e+01    2.861779e+04
  3.106770e+01    2.529326e+04
  3.115924e+01    1.420521e+04
  3.125078e+01    1.171110e+04
  3.134232e+01    1.091702e+04
  3.143387e+01    1.055197e+04
  3.152541e+01    1.029382e+04
  3.161695e+01    1.014990e+04
  3.170849e+01    1.004755e+04
  3.180003e+01    9.994132e+03
  3.189157e+01    9.996777e+03
  3.198311e+01    1.004608e+04
  3.207466e+01    1.012087e+04
  3.216620e+01    1.014264e+04
  3.225774e+01    1.007255e+04
  3.234928e+01    1.036477e+04
  3.244082e+01    1.108976e+04
  3.253236e+01    9.896076e+03
  3.262390e+01    9.376481e+03
  3.271545e+01    9.223022e+03
  3.280699e+01    9.126993e+03
  3.289853e+01    9.055612e+03
  3.299007e+01    9.001508e+03
  3.308161e+01    8.951564e+03
  3.317315e+01    8.935673e+03
  3.326469e+01    8.938490e+03
  3.335624e+01    8.941382e+03
  3.344778e+01    8.961882e+03
  3.353932e+01    9.118660e+03
  3.363086e+01    9.892156e+03
  3.372240e+01    1.472479e+04
  3.381394e+01    2.084908e+04
  3.390549e+01    1.204606e+04
  3.399703e+01    9.353774e+03
  3.408857e+01    8.883259e+03
  3.418011e+01    8.754484e+03
  3.427165e+01    8.661466e+03
  3.436319e+01    8.526120e+03
  3.445473e+01    8.415301e+03
  3.454628e+01    8.316990e+03
  3.463782e+01    8.275757e+03
  3.472936e+01    8.291882e+03
  3.482090e+01    8.364973e+03
  3.491244e+01    8.635119e+03
  3.500398e+01    8.863238e+03
  3.509552e+01    8.562401e+03
  3.518707e+01    8.206847e+03
  3.527861e+01    8.037055e+03
  3.537015e+01    7.935626e+03
  3.546169e+01    7.879126e+03
  3.555323e+01    7.821066e+03
  3.564477e+01    7.790525e+03
  3.573631e+01    7.762693e+03
  3.582786e+01    7.750808e+03
  3.591940e+01    7.763154e+03
  3.601094e+01    7.799809e+03
  3.610248e+01    7.863441e+03
  3.619402e+01    8.085898e+03
  3.628556e+01    9.257950e+03
  3.637710e+01    1.261655e+04
  3.646865e+01    9.961000e+03
  3.656019e+01    8.278591e+03
  3.665173e+01    8.012248e+03
  3.674327e+01    7.985414e+03
  3.683481e+01    7.982138e+03
  3.692635e+01    8.025431e+03
  3.701790e+01    8.114014e+03
  3.710944e+01    8.283172e+03
  3.720098e+01    8.546863e+03
  3.729252e+01    9.022145e+03
  3.738406e+01    1.031908e+04
  3.747560e+01    1.583498e+04
  3.756714e+01    4.792012e+04
  3.765869e+01    5.827149e+04
  3.775023e+01    1.907102e+04
  3.784177e+01    1.095854e+04
  3.793331e+01    9.255953e+03
  3.802485e+01    8.640102e+03
  3.811639e+01    8.378450e+03
  3.820793e+01    8.249704e+03
  3.829948e+01    8.252283e+03
  3.839102e+01    8.250354e+03
  3.848256e+01    8.168282e+03
  3.857410e+01    8.114934e+03
  3.866564e+01    8.225524e+03
  3.875718e+01    9.232627e+03
  3.884872e+01    9.997264e+03
  3.894027e+01    8.406342e+03
  3.903181e+01    8.003618e+03
  3.912335e+01    7.925484e+03
  3.921489e+01    7.902994e+03
  3.930643e+01    7.902814e+03
  3.939797e+01    7.909688e+03
  3.948951e+01    7.937073e+03
  3.958106e+01    7.980675e+03
  3.967260e+01    7.983837e+03
  3.976414e+01    7.932583e+03
  3.985568e+01    7.917901e+03
  3.994722e+01    8.204661e+03
  4.003876e+01    8.166661e+03
  4.013031e+01    7.838454e+03
  4.022185e+01    7.855149e+03
  4.031339e+01    7.955658e+03
  4.040493e+01    7.978287e+03
  4.049647e+01    7.834641e+03
  4.058801e+01    7.704680e+03
  4.067955e+01    7.637989e+03
  4.077110e+01    7.638807e+03
  4.086264e+01    7.718495e+03
  4.095418e+01    8.055297e+03
  4.104572e+01    1.001820e+04
  4.113726e+01    1.391605e+04
  4.122880e+01    9.944887e+03
  4.132034e+01    8.321320e+03
  4.141189e+01    7.910761e+03
  4.150343e+01    7.704909e+03
  4.159497e+01    7.641710e+03
  4.168651e+01    7.653549e+03
  4.177805e+01    7.698231e+03
  4.186959e+01    7.809324e+03
  4.196113e+01    7.993384e+03
  4.205268e+01    8.250095e+03
  4.214422e+01    8.690521e+03
  4.223576e+01    9.584209e+03
  4.232730e+01    8.673140e+03
  4.241884e+01    7.902632e+03
  4.251038e+01    7.655182e+03
  4.260192e+01    7.517956e+03
  4.269347e+01    7.456659e+03
  4.278501e+01    7.418240e+03
  4.287655e+01    7.409229e+03
  4.296809e+01    7.437226e+03
  4.305963e+01    7.509718e+03
  4.315117e+01    7.772495e+03
  4.324272e+01    9.159615e+03
  4.333426e+01    1.275913e+04
  4.342580e+01    9.778904e+03
  4.351734e+01    8.087084e+03
  4.360888e+01    7.993426e+03
  4.370042e+01    8.360359e+03
  4.379196e+01    9.051956e+03
  4.388351e+01    1.000200e+04
  4.397505e+01    1.145956e+04
  4.406659e+01    1.219160e+04
  4.415813e+01    1.167982e+04
  4.424967e+01    1.200133e+04
  4.434121e+01    2.097068e+04
  4.443275e+01    2.874471e+04
  4.452430e+01    1.326331e+04
  4.461584e+01    9.019003e+03
  4.470738e+01    8.146251e+03
  4.479892e+01    7.841159e+03
  4.489046e+01    7.641467e+03
  4.498200e+01    7.512543e+03
  4.507354e+01    7.435255e+03
  4.516509e+01    7.450976e+03
  4.525663e+01    7.666385e+03
  4.534817e+01    8.954878e+03
  4.543971e+01    1.326809e+04
  4.553125e+01    1.053779e+04
  4.562279e+01    7.946378e+03
  4.571433e+01    7.584271e+03
  4.580588e+01    7.593398e+03
  4.589742e+01    7.719487e+03
  4.598896e+01    7.894938e+03
  4.608050e+01    7.994166e+03
  4.617204e+01    7.912958e+03
  4.626358e+01    7.757422e+03
  4.635513e+01    7.786014e+03
  4.644667e+01    8.926840e+03
  4.653821e+01    8.705030e+03
  4.662975e+01    7.714497e+03
  4.672129e+01    7.617632e+03
  4.681283e+01    7.628522e+03
  4.690437e+01    7.416401e+03
  4.699592e+01    7.267316e+03
  4.708746e+01    7.220889e+03
  4.717900e+01    7.225433e+03
  4.727054e+01    7.305811e+03
  4.736208e+01    7.555481e+03
  4.745362e+01    8.541240e+03
  4.754516e+01    8.673765e+03
  4.763671e+01    8.181458e+03
  4.772825e+01    7.944577e+03
  4.781979e+01    7.628382e+03
  4.788844e+01    3.101611e+03