File: Output/ROCK_XRD/WAM39B_integrated/rampe1/wam39b_rampe_1_xrd_000018_integrated.dat
# == pyFAI calibration ==
# Distance Sample to Detector: 0.261615 m
# PONI: 2.023e-01, 2.348e-01 m
# Rotations: -0.026380 0.002005 0.000000 rad
#
# == Fit2d calibration ==
# Distance Sample-beamCenter: 261.707 mm
# Center: x=6119.331, y=5134.776 pix
# Tilt: 1.516 deg  TiltPlanRot: 4.347 deg
#
# Detector Rayonix SX165	 PixelSize= 3.950e-05, 3.950e-05 m
#    Detector has a mask: True
#    Detector has a dark current: False
#    detector has a flat field: False
#
# Wavelength: 1.12713e-10 m
# Mask applied: from detector
# Dark current applied: False
# Flat field applied: False
# Polarization factor: None
# Normalization factor: 1.0
# --> ROCK\\WAM39B_integrated\wam39b_rampe_1_xrd_000018_integrated.dat
#       2th_deg             I
  2.502596e+01    4.718190e+03
  2.511750e+01    1.939825e+04
  2.520905e+01    1.973841e+04
  2.530059e+01    1.993817e+04
  2.539213e+01    1.969448e+04
  2.548367e+01    2.024460e+04
  2.557521e+01    2.124250e+04
  2.566675e+01    2.198263e+04
  2.575829e+01    2.208650e+04
  2.584984e+01    2.109382e+04
  2.594138e+01    2.054930e+04
  2.603292e+01    2.087460e+04
  2.612446e+01    2.174177e+04
  2.621600e+01    2.342217e+04
  2.630754e+01    2.849814e+04
  2.639908e+01    3.331455e+04
  2.649063e+01    2.592188e+04
  2.658217e+01    2.361378e+04
  2.667371e+01    2.293684e+04
  2.676525e+01    2.192254e+04
  2.685679e+01    2.050823e+04
  2.694833e+01    1.910814e+04
  2.703988e+01    1.810268e+04
  2.713142e+01    1.742509e+04
  2.722296e+01    1.692936e+04
  2.731450e+01    1.660323e+04
  2.740604e+01    1.636975e+04
  2.749758e+01    1.629101e+04
  2.758912e+01    1.633784e+04
  2.768067e+01    1.656073e+04
  2.777221e+01    1.716321e+04
  2.786375e+01    1.848804e+04
  2.795529e+01    2.120026e+04
  2.804683e+01    2.159708e+04
  2.813837e+01    1.705486e+04
  2.822991e+01    1.536073e+04
  2.832146e+01    1.463923e+04
  2.841300e+01    1.417759e+04
  2.850454e+01    1.386350e+04
  2.859608e+01    1.362710e+04
  2.868762e+01    1.339116e+04
  2.877916e+01    1.318407e+04
  2.887070e+01    1.298427e+04
  2.896225e+01    1.281392e+04
  2.905379e+01    1.261547e+04
  2.914533e+01    1.243515e+04
  2.923687e+01    1.231274e+04
  2.932841e+01    1.221124e+04
  2.941995e+01    1.225911e+04
  2.951149e+01    1.311263e+04
  2.960304e+01    1.336377e+04
  2.969458e+01    1.199018e+04
  2.978612e+01    1.163411e+04
  2.987766e+01    1.149994e+04
  2.996920e+01    1.146525e+04
  3.006074e+01    1.148367e+04
  3.015228e+01    1.155633e+04
  3.024383e+01    1.165714e+04
  3.033537e+01    1.186789e+04
  3.042691e+01    1.223307e+04
  3.051845e+01    1.279845e+04
  3.060999e+01    1.366133e+04
  3.070153e+01    1.491705e+04
  3.079308e+01    1.641704e+04
  3.088462e+01    1.839629e+04
  3.097616e+01    2.578748e+04
  3.106770e+01    3.250129e+04
  3.115924e+01    1.836008e+04
  3.125078e+01    1.376739e+04
  3.134232e+01    1.235170e+04
  3.143387e+01    1.165591e+04
  3.152541e+01    1.123177e+04
  3.161695e+01    1.093208e+04
  3.170849e+01    1.074326e+04
  3.180003e+01    1.055159e+04
  3.189157e+01    1.043029e+04
  3.198311e+01    1.032653e+04
  3.207466e+01    1.022806e+04
  3.216620e+01    1.013075e+04
  3.225774e+01    1.005483e+04
  3.234928e+01    1.022198e+04
  3.244082e+01    1.127840e+04
  3.253236e+01    1.056703e+04
  3.262390e+01    9.701324e+03
  3.271545e+01    9.492332e+03
  3.280699e+01    9.387958e+03
  3.289853e+01    9.310718e+03
  3.299007e+01    9.253615e+03
  3.308161e+01    9.198342e+03
  3.317315e+01    9.172772e+03
  3.326469e+01    9.168025e+03
  3.335624e+01    9.167881e+03
  3.344778e+01    9.182257e+03
  3.353932e+01    9.273514e+03
  3.363086e+01    9.734708e+03
  3.372240e+01    1.241068e+04
  3.381394e+01    2.177738e+04
  3.390549e+01    1.535755e+04
  3.399703e+01    1.012493e+04
  3.408857e+01    9.299415e+03
  3.418011e+01    9.080994e+03
  3.427165e+01    8.978240e+03
  3.436319e+01    8.868382e+03
  3.445473e+01    8.738573e+03
  3.454628e+01    8.639954e+03
  3.463782e+01    8.577179e+03
  3.472936e+01    8.559252e+03
  3.482090e+01    8.580137e+03
  3.491244e+01    8.700073e+03
  3.500398e+01    8.850700e+03
  3.509552e+01    8.852040e+03
  3.518707e+01    8.633370e+03
  3.527861e+01    8.419966e+03
  3.537015e+01    8.275416e+03
  3.546169e+01    8.170375e+03
  3.555323e+01    8.093924e+03
  3.564477e+01    8.036788e+03
  3.573631e+01    8.003396e+03
  3.582786e+01    7.988290e+03
  3.591940e+01    7.990105e+03
  3.601094e+01    8.002982e+03
  3.610248e+01    8.057354e+03
  3.619402e+01    8.199292e+03
  3.628556e+01    8.793298e+03
  3.637710e+01    1.199805e+04
  3.646865e+01    1.190963e+04
  3.656019e+01    8.821667e+03
  3.665173e+01    8.287541e+03
  3.674327e+01    8.191273e+03
  3.683481e+01    8.189820e+03
  3.692635e+01    8.220387e+03
  3.701790e+01    8.298699e+03
  3.710944e+01    8.442767e+03
  3.720098e+01    8.686167e+03
  3.729252e+01    9.067762e+03
  3.738406e+01    9.958655e+03
  3.747560e+01    1.288843e+04
  3.756714e+01    3.090571e+04
  3.765869e+01    7.181634e+04
  3.775023e+01    3.065362e+04
  3.784177e+01    1.293900e+04
  3.793331e+01    1.002513e+04
  3.802485e+01    9.097673e+03
  3.811639e+01    8.735921e+03
  3.820793e+01    8.547979e+03
  3.829948e+01    8.477929e+03
  3.839102e+01    8.404433e+03
  3.848256e+01    8.344968e+03
  3.857410e+01    8.309862e+03
  3.866564e+01    8.352883e+03
  3.875718e+01    8.859221e+03
  3.884872e+01    1.054162e+04
  3.894027e+01    9.205307e+03
  3.903181e+01    8.327771e+03
  3.912335e+01    8.180954e+03
  3.921489e+01    8.133563e+03
  3.930643e+01    8.109248e+03
  3.939797e+01    8.088083e+03
  3.948951e+01    8.067002e+03
  3.958106e+01    8.062817e+03
  3.967260e+01    8.030265e+03
  3.976414e+01    8.008783e+03
  3.985568e+01    8.021670e+03
  3.994722e+01    8.241753e+03
  4.003876e+01    8.614745e+03
  4.013031e+01    8.245712e+03
  4.022185e+01    8.191298e+03
  4.031339e+01    8.303105e+03
  4.040493e+01    8.359648e+03
  4.049647e+01    8.267544e+03
  4.058801e+01    8.113370e+03
  4.067955e+01    7.994183e+03
  4.077110e+01    7.948128e+03
  4.086264e+01    7.979998e+03
  4.095418e+01    8.156282e+03
  4.104572e+01    9.054369e+03
  4.113726e+01    1.355586e+04
  4.122880e+01    1.245875e+04
  4.132034e+01    8.909358e+03
  4.141189e+01    8.329672e+03
  4.150343e+01    8.135365e+03
  4.159497e+01    8.029403e+03
  4.168651e+01    8.001928e+03
  4.177805e+01    7.978890e+03
  4.186959e+01    7.989479e+03
  4.196113e+01    8.026263e+03
  4.205268e+01    8.054559e+03
  4.214422e+01    8.189698e+03
  4.223576e+01    8.953508e+03
  4.232730e+01    9.118955e+03
  4.241884e+01    8.086442e+03
  4.251038e+01    7.836952e+03
  4.260192e+01    7.738374e+03
  4.269347e+01    7.682189e+03
  4.278501e+01    7.648781e+03
  4.287655e+01    7.633984e+03
  4.296809e+01    7.654965e+03
  4.305963e+01    7.708119e+03
  4.315117e+01    7.856494e+03
  4.324272e+01    8.492159e+03
  4.333426e+01    1.193775e+04
  4.342580e+01    1.225135e+04
  4.351734e+01    8.778578e+03
  4.360888e+01    8.294479e+03
  4.370042e+01    8.436412e+03
  4.379196e+01    8.771065e+03
  4.388351e+01    9.059020e+03
  4.397505e+01    9.337750e+03
  4.406659e+01    9.789082e+03
  4.415813e+01    1.037261e+04
  4.424967e+01    1.136975e+04
  4.434121e+01    1.578476e+04
  4.443275e+01    3.224587e+04
  4.452430e+01    2.138102e+04
  4.461584e+01    1.110452e+04
  4.470738e+01    9.204915e+03
  4.479892e+01    8.612964e+03
  4.489046e+01    8.298492e+03
  4.498200e+01    8.098170e+03
  4.507354e+01    7.966699e+03
  4.516509e+01    7.909819e+03
  4.525663e+01    7.992201e+03
  4.534817e+01    8.529212e+03
  4.543971e+01    1.182954e+04
  4.553125e+01    1.373415e+04
  4.562279e+01    9.104193e+03
  4.571433e+01    8.060196e+03
  4.580588e+01    7.858328e+03
  4.589742e+01    7.791423e+03
  4.598896e+01    7.750172e+03
  4.608050e+01    7.711410e+03
  4.617204e+01    7.670499e+03
  4.626358e+01    7.656257e+03
  4.635513e+01    7.720928e+03
  4.644667e+01    8.402034e+03
  4.653821e+01    9.631746e+03
  4.662975e+01    8.233973e+03
  4.672129e+01    7.770054e+03
  4.681283e+01    7.755947e+03
  4.690437e+01    7.761883e+03
  4.699592e+01    7.668650e+03
  4.708746e+01    7.596563e+03
  4.717900e+01    7.547791e+03
  4.727054e+01    7.586113e+03
  4.736208e+01    7.713021e+03
  4.745362e+01    8.321934e+03
  4.754516e+01    9.437196e+03
  4.763671e+01    8.727950e+03
  4.772825e+01    8.260816e+03
  4.781979e+01    7.869112e+03
  4.788844e+01    3.196223e+03