File: Output/ROCK_XRD/WAM39B_integrated/rampe1/wam39b_rampe_1_xrd_000006_integrated.dat
# == pyFAI calibration ==
# Distance Sample to Detector: 0.261615 m
# PONI: 2.023e-01, 2.348e-01 m
# Rotations: -0.026380 0.002005 0.000000 rad
#
# == Fit2d calibration ==
# Distance Sample-beamCenter: 261.707 mm
# Center: x=6119.331, y=5134.776 pix
# Tilt: 1.516 deg  TiltPlanRot: 4.347 deg
#
# Detector Rayonix SX165	 PixelSize= 3.950e-05, 3.950e-05 m
#    Detector has a mask: True
#    Detector has a dark current: False
#    detector has a flat field: False
#
# Wavelength: 1.12713e-10 m
# Mask applied: from detector
# Dark current applied: False
# Flat field applied: False
# Polarization factor: None
# Normalization factor: 1.0
# --> ROCK\\WAM39B_integrated\wam39b_rampe_1_xrd_000006_integrated.dat
#       2th_deg             I
  2.502596e+01    5.076190e+03
  2.511750e+01    2.078746e+04
  2.520905e+01    2.115803e+04
  2.530059e+01    2.133634e+04
  2.539213e+01    2.090084e+04
  2.548367e+01    2.113371e+04
  2.557521e+01    2.172787e+04
  2.566675e+01    2.281035e+04
  2.575829e+01    2.349084e+04
  2.584984e+01    2.318003e+04
  2.594138e+01    2.232835e+04
  2.603292e+01    2.200623e+04
  2.612446e+01    2.219969e+04
  2.621600e+01    2.303580e+04
  2.630754e+01    2.457608e+04
  2.639908e+01    2.966856e+04
  2.649063e+01    3.417028e+04
  2.658217e+01    2.625952e+04
  2.667371e+01    2.401768e+04
  2.676525e+01    2.352637e+04
  2.685679e+01    2.296461e+04
  2.694833e+01    2.194678e+04
  2.703988e+01    2.067120e+04
  2.713142e+01    1.960054e+04
  2.722296e+01    1.871802e+04
  2.731450e+01    1.815927e+04
  2.740604e+01    1.772225e+04
  2.749758e+01    1.748715e+04
  2.758912e+01    1.737802e+04
  2.768067e+01    1.735471e+04
  2.777221e+01    1.746747e+04
  2.786375e+01    1.793446e+04
  2.795529e+01    1.897528e+04
  2.804683e+01    2.184267e+04
  2.813837e+01    2.316812e+04
  2.822991e+01    1.859537e+04
  2.832146e+01    1.668988e+04
  2.841300e+01    1.575388e+04
  2.850454e+01    1.519061e+04
  2.859608e+01    1.483216e+04
  2.868762e+01    1.450019e+04
  2.877916e+01    1.422112e+04
  2.887070e+01    1.397820e+04
  2.896225e+01    1.375216e+04
  2.905379e+01    1.352981e+04
  2.914533e+01    1.333796e+04
  2.923687e+01    1.317537e+04
  2.932841e+01    1.303279e+04
  2.941995e+01    1.290885e+04
  2.951149e+01    1.292256e+04
  2.960304e+01    1.376391e+04
  2.969458e+01    1.434850e+04
  2.978612e+01    1.280893e+04
  2.987766e+01    1.234438e+04
  2.996920e+01    1.222099e+04
  3.006074e+01    1.218989e+04
  3.015228e+01    1.219092e+04
  3.024383e+01    1.221035e+04
  3.033537e+01    1.230481e+04
  3.042691e+01    1.246486e+04
  3.051845e+01    1.272587e+04
  3.060999e+01    1.310954e+04
  3.070153e+01    1.374484e+04
  3.079308e+01    1.469700e+04
  3.088462e+01    1.602528e+04
  3.097616e+01    1.810381e+04
  3.106770e+01    2.478691e+04
  3.115924e+01    3.609181e+04
  3.125078e+01    2.206420e+04
  3.134232e+01    1.570362e+04
  3.143387e+01    1.377795e+04
  3.152541e+01    1.279100e+04
  3.161695e+01    1.219158e+04
  3.170849e+01    1.181699e+04
  3.180003e+01    1.152191e+04
  3.189157e+01    1.130526e+04
  3.198311e+01    1.114672e+04
  3.207466e+01    1.099703e+04
  3.216620e+01    1.086651e+04
  3.225774e+01    1.075106e+04
  3.234928e+01    1.066715e+04
  3.244082e+01    1.075430e+04
  3.253236e+01    1.176361e+04
  3.262390e+01    1.164827e+04
  3.271545e+01    1.041944e+04
  3.280699e+01    1.011789e+04
  3.289853e+01    9.994774e+03
  3.299007e+01    9.900430e+03
  3.308161e+01    9.835561e+03
  3.317315e+01    9.784518e+03
  3.326469e+01    9.750521e+03
  3.335624e+01    9.740153e+03
  3.344778e+01    9.733460e+03
  3.353932e+01    9.739021e+03
  3.363086e+01    9.826273e+03
  3.372240e+01    1.016581e+04
  3.381394e+01    1.188193e+04
  3.390549e+01    2.100122e+04
  3.399703e+01    1.989207e+04
  3.408857e+01    1.152492e+04
  3.418011e+01    1.004709e+04
  3.427165e+01    9.711230e+03
  3.436319e+01    9.557430e+03
  3.445473e+01    9.419541e+03
  3.454628e+01    9.284778e+03
  3.463782e+01    9.185151e+03
  3.472936e+01    9.129028e+03
  3.482090e+01    9.108179e+03
  3.491244e+01    9.127324e+03
  3.500398e+01    9.207831e+03
  3.509552e+01    9.330502e+03
  3.518707e+01    9.333699e+03
  3.527861e+01    9.153731e+03
  3.537015e+01    8.960380e+03
  3.546169e+01    8.796408e+03
  3.555323e+01    8.689017e+03
  3.564477e+01    8.599887e+03
  3.573631e+01    8.540534e+03
  3.582786e+01    8.507095e+03
  3.591940e+01    8.486395e+03
  3.601094e+01    8.496490e+03
  3.610248e+01    8.508254e+03
  3.619402e+01    8.549390e+03
  3.628556e+01    8.641919e+03
  3.637710e+01    8.987321e+03
  3.646865e+01    1.109002e+04
  3.656019e+01    1.417234e+04
  3.665173e+01    1.017206e+04
  3.674327e+01    8.912639e+03
  3.683481e+01    8.718108e+03
  3.692635e+01    8.686514e+03
  3.701790e+01    8.709678e+03
  3.710944e+01    8.773938e+03
  3.720098e+01    8.902892e+03
  3.729252e+01    9.107241e+03
  3.738406e+01    9.408091e+03
  3.747560e+01    1.006211e+04
  3.756714e+01    1.188820e+04
  3.765869e+01    2.046399e+04
  3.775023e+01    6.515642e+04
  3.784177e+01    5.609947e+04
  3.793331e+01    1.807656e+04
  3.802485e+01    1.148680e+04
  3.811639e+01    9.980250e+03
  3.820793e+01    9.381168e+03
  3.829948e+01    9.122584e+03
  3.839102e+01    8.974300e+03
  3.848256e+01    8.898814e+03
  3.857410e+01    8.834465e+03
  3.866564e+01    8.784622e+03
  3.875718e+01    8.790920e+03
  3.884872e+01    8.973605e+03
  3.894027e+01    1.041244e+04
  3.903181e+01    1.084589e+04
  3.912335e+01    9.055382e+03
  3.921489e+01    8.661139e+03
  3.930643e+01    8.576656e+03
  3.939797e+01    8.537676e+03
  3.948951e+01    8.496287e+03
  3.958106e+01    8.478139e+03
  3.967260e+01    8.452361e+03
  3.976414e+01    8.423140e+03
  3.985568e+01    8.425013e+03
  3.994722e+01    8.452108e+03
  4.003876e+01    8.519538e+03
  4.013031e+01    8.995391e+03
  4.022185e+01    8.951611e+03
  4.031339e+01    8.646509e+03
  4.040493e+01    8.691271e+03
  4.049647e+01    8.763739e+03
  4.058801e+01    8.748340e+03
  4.067955e+01    8.638548e+03
  4.077110e+01    8.508186e+03
  4.086264e+01    8.425839e+03
  4.095418e+01    8.404056e+03
  4.104572e+01    8.464148e+03
  4.113726e+01    8.819534e+03
  4.122880e+01    1.108633e+04
  4.132034e+01    1.570747e+04
  4.141189e+01    1.086453e+04
  4.150343e+01    8.920451e+03
  4.159497e+01    8.666413e+03
  4.168651e+01    8.605676e+03
  4.177805e+01    8.504621e+03
  4.186959e+01    8.432284e+03
  4.196113e+01    8.388077e+03
  4.205268e+01    8.390983e+03
  4.214422e+01    8.389832e+03
  4.223576e+01    8.436809e+03
  4.232730e+01    8.736104e+03
  4.241884e+01    9.878105e+03
  4.251038e+01    9.077518e+03
  4.260192e+01    8.311544e+03
  4.269347e+01    8.147428e+03
  4.278501e+01    8.072977e+03
  4.287655e+01    8.026395e+03
  4.296809e+01    8.024075e+03
  4.305963e+01    8.013022e+03
  4.315117e+01    8.050353e+03
  4.324272e+01    8.130798e+03
  4.333426e+01    8.390226e+03
  4.342580e+01    9.709673e+03
  4.351734e+01    1.422037e+04
  4.360888e+01    1.131398e+04
  4.370042e+01    8.922733e+03
  4.379196e+01    8.707196e+03
  4.388351e+01    8.870238e+03
  4.397505e+01    9.105137e+03
  4.406659e+01    9.281648e+03
  4.415813e+01    9.570182e+03
  4.424967e+01    1.005986e+04
  4.434121e+01    1.084188e+04
  4.443275e+01    1.257413e+04
  4.452430e+01    2.129724e+04
  4.461584e+01    3.602898e+04
  4.470738e+01    1.822371e+04
  4.479892e+01    1.133857e+04
  4.489046e+01    9.816736e+03
  4.498200e+01    9.189740e+03
  4.507354e+01    8.808995e+03
  4.516509e+01    8.556021e+03
  4.525663e+01    8.416571e+03
  4.534817e+01    8.382757e+03
  4.543971e+01    8.521298e+03
  4.553125e+01    9.483930e+03
  4.562279e+01    1.433001e+04
  4.571433e+01    1.337546e+04
  4.580588e+01    9.177524e+03
  4.589742e+01    8.385933e+03
  4.598896e+01    8.189653e+03
  4.608050e+01    8.112783e+03
  4.617204e+01    8.063995e+03
  4.626358e+01    8.047789e+03
  4.635513e+01    8.019576e+03
  4.644667e+01    8.030477e+03
  4.653821e+01    8.203037e+03
  4.662975e+01    9.255445e+03
  4.672129e+01    9.987239e+03
  4.681283e+01    8.536424e+03
  4.690437e+01    8.205146e+03
  4.699592e+01    8.201378e+03
  4.708746e+01    8.247639e+03
  4.717900e+01    8.192107e+03
  4.727054e+01    8.136848e+03
  4.736208e+01    8.143097e+03
  4.745362e+01    8.275021e+03
  4.754516e+01    8.628546e+03
  4.763671e+01    9.597468e+03
  4.772825e+01    9.952933e+03
  4.781979e+01    8.516947e+03
  4.788844e+01    3.348531e+03