File: Output/ROCK_XRD/WAM39B_integrated/rampe1/wam39b_rampe_1_xrd_000034_integrated.dat
# == pyFAI calibration ==
# Distance Sample to Detector: 0.261615 m
# PONI: 2.023e-01, 2.348e-01 m
# Rotations: -0.026380 0.002005 0.000000 rad
#
# == Fit2d calibration ==
# Distance Sample-beamCenter: 261.707 mm
# Center: x=6119.331, y=5134.776 pix
# Tilt: 1.516 deg  TiltPlanRot: 4.347 deg
#
# Detector Rayonix SX165	 PixelSize= 3.950e-05, 3.950e-05 m
#    Detector has a mask: True
#    Detector has a dark current: False
#    detector has a flat field: False
#
# Wavelength: 1.12713e-10 m
# Mask applied: from detector
# Dark current applied: False
# Flat field applied: False
# Polarization factor: None
# Normalization factor: 1.0
# --> ROCK\\WAM39B_integrated\wam39b_rampe_1_xrd_000034_integrated.dat
#       2th_deg             I
  2.502596e+01    3.875411e+03
  2.511750e+01    1.597735e+04
  2.520905e+01    1.621498e+04
  2.530059e+01    1.626395e+04
  2.539213e+01    1.581662e+04
  2.548367e+01    1.570076e+04
  2.557521e+01    1.563996e+04
  2.566675e+01    1.556525e+04
  2.575829e+01    1.540352e+04
  2.584984e+01    1.530122e+04
  2.594138e+01    1.543289e+04
  2.603292e+01    1.599344e+04
  2.612446e+01    1.814803e+04
  2.621600e+01    3.045066e+04
  2.630754e+01    5.145589e+04
  2.639908e+01    2.314520e+04
  2.649063e+01    1.642660e+04
  2.658217e+01    1.492694e+04
  2.667371e+01    1.438106e+04
  2.676525e+01    1.408378e+04
  2.685679e+01    1.383278e+04
  2.694833e+01    1.364039e+04
  2.703988e+01    1.347239e+04
  2.713142e+01    1.334636e+04
  2.722296e+01    1.317120e+04
  2.731450e+01    1.303600e+04
  2.740604e+01    1.289368e+04
  2.749758e+01    1.280296e+04
  2.758912e+01    1.273268e+04
  2.768067e+01    1.270274e+04
  2.777221e+01    1.296700e+04
  2.786375e+01    1.515866e+04
  2.795529e+01    1.552129e+04
  2.804683e+01    1.271514e+04
  2.813837e+01    1.209066e+04
  2.822991e+01    1.182155e+04
  2.832146e+01    1.166877e+04
  2.841300e+01    1.150551e+04
  2.850454e+01    1.136652e+04
  2.859608e+01    1.121914e+04
  2.868762e+01    1.106084e+04
  2.877916e+01    1.090315e+04
  2.887070e+01    1.077210e+04
  2.896225e+01    1.060399e+04
  2.905379e+01    1.046210e+04
  2.914533e+01    1.031038e+04
  2.923687e+01    1.021754e+04
  2.932841e+01    1.026007e+04
  2.941995e+01    1.109557e+04
  2.951149e+01    1.080303e+04
  2.960304e+01    9.841266e+03
  2.969458e+01    9.598100e+03
  2.978612e+01    9.480121e+03
  2.987766e+01    9.399745e+03
  2.996920e+01    9.399279e+03
  3.006074e+01    9.443894e+03
  3.015228e+01    9.630557e+03
  3.024383e+01    1.029846e+04
  3.033537e+01    1.431115e+04
  3.042691e+01    4.325798e+04
  3.051845e+01    3.723816e+04
  3.060999e+01    1.294801e+04
  3.070153e+01    1.027090e+04
  3.079308e+01    1.082633e+04
  3.088462e+01    1.897193e+04
  3.097616e+01    2.004110e+04
  3.106770e+01    1.047893e+04
  3.115924e+01    8.960806e+03
  3.125078e+01    8.607670e+03
  3.134232e+01    8.440338e+03
  3.143387e+01    8.333696e+03
  3.152541e+01    8.238625e+03
  3.161695e+01    8.165868e+03
  3.170849e+01    8.092300e+03
  3.180003e+01    8.027965e+03
  3.189157e+01    7.978801e+03
  3.198311e+01    7.919224e+03
  3.207466e+01    7.886742e+03
  3.216620e+01    7.875505e+03
  3.225774e+01    8.176515e+03
  3.234928e+01    9.053141e+03
  3.244082e+01    8.056160e+03
  3.253236e+01    7.679116e+03
  3.262390e+01    7.589822e+03
  3.271545e+01    7.539575e+03
  3.280699e+01    7.484175e+03
  3.289853e+01    7.437865e+03
  3.299007e+01    7.399599e+03
  3.308161e+01    7.366241e+03
  3.317315e+01    7.336948e+03
  3.326469e+01    7.314898e+03
  3.335624e+01    7.320750e+03
  3.344778e+01    7.404881e+03
  3.353932e+01    7.840608e+03
  3.363086e+01    1.157384e+04
  3.372240e+01    1.755048e+04
  3.381394e+01    9.310623e+03
  3.390549e+01    7.432491e+03
  3.399703e+01    7.108009e+03
  3.408857e+01    6.990792e+03
  3.418011e+01    6.909006e+03
  3.427165e+01    6.852039e+03
  3.436319e+01    6.813601e+03
  3.445473e+01    6.764170e+03
  3.454628e+01    6.719379e+03
  3.463782e+01    6.674638e+03
  3.472936e+01    6.646698e+03
  3.482090e+01    6.603972e+03
  3.491244e+01    6.574651e+03
  3.500398e+01    6.533843e+03
  3.509552e+01    6.502754e+03
  3.518707e+01    6.479298e+03
  3.527861e+01    6.453382e+03
  3.537015e+01    6.420436e+03
  3.546169e+01    6.378630e+03
  3.555323e+01    6.358765e+03
  3.564477e+01    6.332629e+03
  3.573631e+01    6.319238e+03
  3.582786e+01    6.312847e+03
  3.591940e+01    6.324900e+03
  3.601094e+01    6.367281e+03
  3.610248e+01    6.504664e+03
  3.619402e+01    7.475110e+03
  3.628556e+01    1.057932e+04
  3.637710e+01    7.665979e+03
  3.646865e+01    6.566241e+03
  3.656019e+01    6.453248e+03
  3.665173e+01    6.435309e+03
  3.674327e+01    6.447004e+03
  3.683481e+01    6.488103e+03
  3.692635e+01    6.543520e+03
  3.701790e+01    6.633302e+03
  3.710944e+01    6.773876e+03
  3.720098e+01    7.086105e+03
  3.729252e+01    7.894177e+03
  3.738406e+01    1.210474e+04
  3.747560e+01    4.412503e+04
  3.756714e+01    4.262547e+04
  3.765869e+01    1.190867e+04
  3.775023e+01    7.948428e+03
  3.784177e+01    7.151985e+03
  3.793331e+01    6.869087e+03
  3.802485e+01    6.695854e+03
  3.811639e+01    6.629559e+03
  3.820793e+01    6.563159e+03
  3.829948e+01    6.545366e+03
  3.839102e+01    6.520811e+03
  3.848256e+01    6.546809e+03
  3.857410e+01    6.675931e+03
  3.866564e+01    7.734674e+03
  3.875718e+01    7.975954e+03
  3.884872e+01    6.698998e+03
  3.894027e+01    6.506025e+03
  3.903181e+01    6.466518e+03
  3.912335e+01    6.438821e+03
  3.921489e+01    6.419179e+03
  3.930643e+01    6.409694e+03
  3.939797e+01    6.381863e+03
  3.948951e+01    6.348479e+03
  3.958106e+01    6.331517e+03
  3.967260e+01    6.305744e+03
  3.976414e+01    6.340260e+03
  3.985568e+01    6.696234e+03
  3.994722e+01    6.519720e+03
  4.003876e+01    6.263806e+03
  4.013031e+01    6.229787e+03
  4.022185e+01    6.205402e+03
  4.031339e+01    6.199355e+03
  4.040493e+01    6.187831e+03
  4.049647e+01    6.179495e+03
  4.058801e+01    6.166227e+03
  4.067955e+01    6.180234e+03
  4.077110e+01    6.235734e+03
  4.086264e+01    6.490739e+03
  4.095418e+01    8.770573e+03
  4.104572e+01    1.107157e+04
  4.113726e+01    7.024008e+03
  4.122880e+01    6.276071e+03
  4.132034e+01    6.143600e+03
  4.141189e+01    6.103302e+03
  4.150343e+01    6.084028e+03
  4.159497e+01    6.079711e+03
  4.168651e+01    6.074094e+03
  4.177805e+01    6.058120e+03
  4.186959e+01    6.063800e+03
  4.196113e+01    6.101862e+03
  4.205268e+01    6.457776e+03
  4.214422e+01    7.154338e+03
  4.223576e+01    6.283569e+03
  4.232730e+01    6.072154e+03
  4.241884e+01    6.040052e+03
  4.251038e+01    6.031367e+03
  4.260192e+01    6.029037e+03
  4.269347e+01    6.036903e+03
  4.278501e+01    6.040842e+03
  4.287655e+01    6.077433e+03
  4.296809e+01    6.161768e+03
  4.305963e+01    6.384990e+03
  4.315117e+01    8.210017e+03
  4.324272e+01    1.040643e+04
  4.333426e+01    7.163866e+03
  4.342580e+01    7.082531e+03
  4.351734e+01    1.143824e+04
  4.360888e+01    2.344887e+04
  4.370042e+01    9.765354e+03
  4.379196e+01    6.747457e+03
  4.388351e+01    6.346197e+03
  4.397505e+01    6.330319e+03
  4.406659e+01    6.605708e+03
  4.415813e+01    8.423189e+03
  4.424967e+01    2.147844e+04
  4.434121e+01    1.834336e+04
  4.443275e+01    7.754484e+03
  4.452430e+01    6.436016e+03
  4.461584e+01    6.142166e+03
  4.470738e+01    6.000984e+03
  4.479892e+01    5.950972e+03
  4.489046e+01    5.920958e+03
  4.498200e+01    5.930032e+03
  4.507354e+01    5.974814e+03
  4.516509e+01    6.188766e+03
  4.525663e+01    8.064658e+03
  4.534817e+01    1.095980e+04
  4.543971e+01    6.931530e+03
  4.553125e+01    6.004946e+03
  4.562279e+01    5.834314e+03
  4.571433e+01    5.784085e+03
  4.580588e+01    5.755053e+03
  4.589742e+01    5.727833e+03
  4.598896e+01    5.704784e+03
  4.608050e+01    5.704445e+03
  4.617204e+01    5.742983e+03
  4.626358e+01    6.138347e+03
  4.635513e+01    7.383738e+03
  4.644667e+01    6.213639e+03
  4.653821e+01    5.769547e+03
  4.662975e+01    5.711060e+03
  4.672129e+01    5.698817e+03
  4.681283e+01    5.724603e+03
  4.690437e+01    5.754788e+03
  4.699592e+01    5.787208e+03
  4.708746e+01    5.854630e+03
  4.717900e+01    5.932822e+03
  4.727054e+01    6.262972e+03
  4.736208e+01    7.141480e+03
  4.745362e+01    6.503778e+03
  4.754516e+01    6.415072e+03
  4.763671e+01    6.568943e+03
  4.772825e+01    6.428143e+03
  4.781979e+01    6.114969e+03
  4.788844e+01    2.471544e+03