File: Output/ROCK_XRD/WAM39B_integrated/rampe1/wam39b_rampe_1_xrd_000007_integrated.dat
# == pyFAI calibration ==
# Distance Sample to Detector: 0.261615 m
# PONI: 2.023e-01, 2.348e-01 m
# Rotations: -0.026380 0.002005 0.000000 rad
#
# == Fit2d calibration ==
# Distance Sample-beamCenter: 261.707 mm
# Center: x=6119.331, y=5134.776 pix
# Tilt: 1.516 deg  TiltPlanRot: 4.347 deg
#
# Detector Rayonix SX165	 PixelSize= 3.950e-05, 3.950e-05 m
#    Detector has a mask: True
#    Detector has a dark current: False
#    detector has a flat field: False
#
# Wavelength: 1.12713e-10 m
# Mask applied: from detector
# Dark current applied: False
# Flat field applied: False
# Polarization factor: None
# Normalization factor: 1.0
# --> ROCK\\WAM39B_integrated\wam39b_rampe_1_xrd_000007_integrated.dat
#       2th_deg             I
  2.502596e+01    5.210542e+03
  2.511750e+01    2.138691e+04
  2.520905e+01    2.175110e+04
  2.530059e+01    2.194810e+04
  2.539213e+01    2.151551e+04
  2.548367e+01    2.177847e+04
  2.557521e+01    2.240904e+04
  2.566675e+01    2.355874e+04
  2.575829e+01    2.419814e+04
  2.584984e+01    2.382575e+04
  2.594138e+01    2.292083e+04
  2.603292e+01    2.264501e+04
  2.612446e+01    2.290651e+04
  2.621600e+01    2.380129e+04
  2.630754e+01    2.549870e+04
  2.639908e+01    3.124352e+04
  2.649063e+01    3.481674e+04
  2.658217e+01    2.676140e+04
  2.667371e+01    2.473803e+04
  2.676525e+01    2.422425e+04
  2.685679e+01    2.357995e+04
  2.694833e+01    2.246421e+04
  2.703988e+01    2.112546e+04
  2.713142e+01    2.002710e+04
  2.722296e+01    1.918502e+04
  2.731450e+01    1.863338e+04
  2.740604e+01    1.821937e+04
  2.749758e+01    1.799353e+04
  2.758912e+01    1.787696e+04
  2.768067e+01    1.786357e+04
  2.777221e+01    1.801102e+04
  2.786375e+01    1.855024e+04
  2.795529e+01    1.971150e+04
  2.804683e+01    2.282880e+04
  2.813837e+01    2.346754e+04
  2.822991e+01    1.886506e+04
  2.832146e+01    1.705121e+04
  2.841300e+01    1.613052e+04
  2.850454e+01    1.558122e+04
  2.859608e+01    1.522940e+04
  2.868762e+01    1.486640e+04
  2.877916e+01    1.462178e+04
  2.887070e+01    1.436781e+04
  2.896225e+01    1.414155e+04
  2.905379e+01    1.391538e+04
  2.914533e+01    1.371687e+04
  2.923687e+01    1.355880e+04
  2.932841e+01    1.339471e+04
  2.941995e+01    1.328689e+04
  2.951149e+01    1.332862e+04
  2.960304e+01    1.429153e+04
  2.969458e+01    1.464319e+04
  2.978612e+01    1.310944e+04
  2.987766e+01    1.267663e+04
  2.996920e+01    1.256382e+04
  3.006074e+01    1.253874e+04
  3.015228e+01    1.254440e+04
  3.024383e+01    1.256558e+04
  3.033537e+01    1.268231e+04
  3.042691e+01    1.285707e+04
  3.051845e+01    1.313210e+04
  3.060999e+01    1.357667e+04
  3.070153e+01    1.426420e+04
  3.079308e+01    1.530388e+04
  3.088462e+01    1.671398e+04
  3.097616e+01    1.897843e+04
  3.106770e+01    2.672050e+04
  3.115924e+01    3.660280e+04
  3.125078e+01    2.157222e+04
  3.134232e+01    1.582329e+04
  3.143387e+01    1.400160e+04
  3.152541e+01    1.305099e+04
  3.161695e+01    1.247726e+04
  3.170849e+01    1.209188e+04
  3.180003e+01    1.182667e+04
  3.189157e+01    1.161369e+04
  3.198311e+01    1.144387e+04
  3.207466e+01    1.130390e+04
  3.216620e+01    1.116030e+04
  3.225774e+01    1.104719e+04
  3.234928e+01    1.096068e+04
  3.244082e+01    1.109773e+04
  3.253236e+01    1.223599e+04
  3.262390e+01    1.181129e+04
  3.271545e+01    1.066663e+04
  3.280699e+01    1.039319e+04
  3.289853e+01    1.027248e+04
  3.299007e+01    1.018073e+04
  3.308161e+01    1.011285e+04
  3.317315e+01    1.007060e+04
  3.326469e+01    1.003015e+04
  3.335624e+01    1.000632e+04
  3.344778e+01    1.001585e+04
  3.353932e+01    1.001969e+04
  3.363086e+01    1.012010e+04
  3.372240e+01    1.051522e+04
  3.381394e+01    1.261399e+04
  3.390549e+01    2.263781e+04
  3.399703e+01    1.921837e+04
  3.408857e+01    1.157032e+04
  3.418011e+01    1.028451e+04
  3.427165e+01    9.965937e+03
  3.436319e+01    9.824332e+03
  3.445473e+01    9.680529e+03
  3.454628e+01    9.549574e+03
  3.463782e+01    9.450845e+03
  3.472936e+01    9.381513e+03
  3.482090e+01    9.349925e+03
  3.491244e+01    9.393295e+03
  3.500398e+01    9.484132e+03
  3.509552e+01    9.603032e+03
  3.518707e+01    9.589915e+03
  3.527861e+01    9.406096e+03
  3.537015e+01    9.199396e+03
  3.546169e+01    9.039672e+03
  3.555323e+01    8.922790e+03
  3.564477e+01    8.842954e+03
  3.573631e+01    8.789950e+03
  3.582786e+01    8.755501e+03
  3.591940e+01    8.735295e+03
  3.601094e+01    8.732965e+03
  3.610248e+01    8.753188e+03
  3.619402e+01    8.797115e+03
  3.628556e+01    8.902596e+03
  3.637710e+01    9.314496e+03
  3.646865e+01    1.187134e+04
  3.656019e+01    1.430405e+04
  3.665173e+01    1.017792e+04
  3.674327e+01    9.121211e+03
  3.683481e+01    8.965138e+03
  3.692635e+01    8.940439e+03
  3.701790e+01    8.967974e+03
  3.710944e+01    9.031269e+03
  3.720098e+01    9.179211e+03
  3.729252e+01    9.386014e+03
  3.738406e+01    9.709670e+03
  3.747560e+01    1.045951e+04
  3.756714e+01    1.257345e+04
  3.765869e+01    2.331208e+04
  3.775023e+01    7.218942e+04
  3.784177e+01    5.118389e+04
  3.793331e+01    1.717179e+04
  3.802485e+01    1.155583e+04
  3.811639e+01    1.017171e+04
  3.820793e+01    9.605980e+03
  3.829948e+01    9.371005e+03
  3.839102e+01    9.222345e+03
  3.848256e+01    9.147896e+03
  3.857410e+01    9.094050e+03
  3.866564e+01    9.035404e+03
  3.875718e+01    9.041734e+03
  3.884872e+01    9.296688e+03
  3.894027e+01    1.096817e+04
  3.903181e+01    1.090846e+04
  3.912335e+01    9.214042e+03
  3.921489e+01    8.905035e+03
  3.930643e+01    8.810564e+03
  3.939797e+01    8.780395e+03
  3.948951e+01    8.745182e+03
  3.958106e+01    8.724830e+03
  3.967260e+01    8.699531e+03
  3.976414e+01    8.678912e+03
  3.985568e+01    8.671013e+03
  3.994722e+01    8.693436e+03
  4.003876e+01    8.790456e+03
  4.013031e+01    9.312223e+03
  4.022185e+01    9.153130e+03
  4.031339e+01    8.889727e+03
  4.040493e+01    8.956995e+03
  4.049647e+01    9.029482e+03
  4.058801e+01    9.009015e+03
  4.067955e+01    8.885575e+03
  4.077110e+01    8.754692e+03
  4.086264e+01    8.664567e+03
  4.095418e+01    8.651360e+03
  4.104572e+01    8.727208e+03
  4.113726e+01    9.177482e+03
  4.122880e+01    1.203659e+04
  4.132034e+01    1.596431e+04
  4.141189e+01    1.071054e+04
  4.150343e+01    9.128388e+03
  4.159497e+01    8.906484e+03
  4.168651e+01    8.840601e+03
  4.177805e+01    8.731811e+03
  4.186959e+01    8.666543e+03
  4.196113e+01    8.628863e+03
  4.205268e+01    8.622356e+03
  4.214422e+01    8.634690e+03
  4.223576e+01    8.707022e+03
  4.232730e+01    9.082703e+03
  4.241884e+01    1.019673e+04
  4.251038e+01    9.168164e+03
  4.260192e+01    8.534405e+03
  4.269347e+01    8.384402e+03
  4.278501e+01    8.307831e+03
  4.287655e+01    8.261246e+03
  4.296809e+01    8.260892e+03
  4.305963e+01    8.265750e+03
  4.315117e+01    8.290309e+03
  4.324272e+01    8.398888e+03
  4.333426e+01    8.703377e+03
  4.342580e+01    1.040602e+04
  4.351734e+01    1.481617e+04
  4.360888e+01    1.106347e+04
  4.370042e+01    9.122958e+03
  4.379196e+01    8.974037e+03
  4.388351e+01    9.187122e+03
  4.397505e+01    9.424435e+03
  4.406659e+01    9.615151e+03
  4.415813e+01    9.933668e+03
  4.424967e+01    1.047767e+04
  4.434121e+01    1.132548e+04
  4.443275e+01    1.337455e+04
  4.452430e+01    2.441508e+04
  4.461584e+01    3.586759e+04
  4.470738e+01    1.694713e+04
  4.479892e+01    1.130485e+04
  4.489046e+01    9.952172e+03
  4.498200e+01    9.372304e+03
  4.507354e+01    9.005983e+03
  4.516509e+01    8.777584e+03
  4.525663e+01    8.650616e+03
  4.534817e+01    8.638940e+03
  4.543971e+01    8.822173e+03
  4.553125e+01    1.007556e+04
  4.562279e+01    1.541193e+04
  4.571433e+01    1.289195e+04
  4.580588e+01    9.241330e+03
  4.589742e+01    8.599258e+03
  4.598896e+01    8.422921e+03
  4.608050e+01    8.340610e+03
  4.617204e+01    8.301174e+03
  4.626358e+01    8.286700e+03
  4.635513e+01    8.257411e+03
  4.644667e+01    8.275167e+03
  4.653821e+01    8.493663e+03
  4.662975e+01    9.807279e+03
  4.672129e+01    1.008642e+04
  4.681283e+01    8.683240e+03
  4.690437e+01    8.432097e+03
  4.699592e+01    8.442627e+03
  4.708746e+01    8.484345e+03
  4.717900e+01    8.421604e+03
  4.727054e+01    8.356979e+03
  4.736208e+01    8.390646e+03
  4.745362e+01    8.522595e+03
  4.754516e+01    8.921826e+03
  4.763671e+01    1.005174e+04
  4.772825e+01    1.011297e+04
  4.781979e+01    8.709181e+03
  4.788844e+01    3.447760e+03