File: Output/ROCK_XRD/WAM39B_integrated/rampe1/wam39b_rampe_1_xrd_000003_integrated.dat
# == pyFAI calibration ==
# Distance Sample to Detector: 0.261615 m
# PONI: 2.023e-01, 2.348e-01 m
# Rotations: -0.026380 0.002005 0.000000 rad
#
# == Fit2d calibration ==
# Distance Sample-beamCenter: 261.707 mm
# Center: x=6119.331, y=5134.776 pix
# Tilt: 1.516 deg  TiltPlanRot: 4.347 deg
#
# Detector Rayonix SX165	 PixelSize= 3.950e-05, 3.950e-05 m
#    Detector has a mask: True
#    Detector has a dark current: False
#    detector has a flat field: False
#
# Wavelength: 1.12713e-10 m
# Mask applied: from detector
# Dark current applied: False
# Flat field applied: False
# Polarization factor: None
# Normalization factor: 1.0
# --> ROCK\\WAM39B_integrated\wam39b_rampe_1_xrd_000003_integrated.dat
#       2th_deg             I
  2.502596e+01    5.418989e+03
  2.511750e+01    2.219909e+04
  2.520905e+01    2.261547e+04
  2.530059e+01    2.277636e+04
  2.539213e+01    2.223814e+04
  2.548367e+01    2.238725e+04
  2.557521e+01    2.280585e+04
  2.566675e+01    2.375413e+04
  2.575829e+01    2.474499e+04
  2.584984e+01    2.484693e+04
  2.594138e+01    2.404833e+04
  2.603292e+01    2.344794e+04
  2.612446e+01    2.344661e+04
  2.621600e+01    2.407301e+04
  2.630754e+01    2.523473e+04
  2.639908e+01    2.826772e+04
  2.649063e+01    3.618647e+04
  2.658217e+01    3.050085e+04
  2.667371e+01    2.577309e+04
  2.676525e+01    2.494267e+04
  2.685679e+01    2.457945e+04
  2.694833e+01    2.385428e+04
  2.703988e+01    2.267324e+04
  2.713142e+01    2.141343e+04
  2.722296e+01    2.033315e+04
  2.731450e+01    1.957554e+04
  2.740604e+01    1.904470e+04
  2.749758e+01    1.872854e+04
  2.758912e+01    1.854791e+04
  2.768067e+01    1.844022e+04
  2.777221e+01    1.844783e+04
  2.786375e+01    1.874212e+04
  2.795529e+01    1.942478e+04
  2.804683e+01    2.131642e+04
  2.813837e+01    2.522204e+04
  2.822991e+01    2.163537e+04
  2.832146e+01    1.850554e+04
  2.841300e+01    1.717545e+04
  2.850454e+01    1.642728e+04
  2.859608e+01    1.596523e+04
  2.868762e+01    1.556533e+04
  2.877916e+01    1.525406e+04
  2.887070e+01    1.498620e+04
  2.896225e+01    1.472554e+04
  2.905379e+01    1.447479e+04
  2.914533e+01    1.426074e+04
  2.923687e+01    1.409031e+04
  2.932841e+01    1.392427e+04
  2.941995e+01    1.376535e+04
  2.951149e+01    1.369278e+04
  2.960304e+01    1.402830e+04
  2.969458e+01    1.541626e+04
  2.978612e+01    1.425165e+04
  2.987766e+01    1.327001e+04
  2.996920e+01    1.305049e+04
  3.006074e+01    1.298358e+04
  3.015228e+01    1.296144e+04
  3.024383e+01    1.295360e+04
  3.033537e+01    1.301727e+04
  3.042691e+01    1.314638e+04
  3.051845e+01    1.333764e+04
  3.060999e+01    1.364438e+04
  3.070153e+01    1.413331e+04
  3.079308e+01    1.491022e+04
  3.088462e+01    1.601420e+04
  3.097616e+01    1.772082e+04
  3.106770e+01    2.140162e+04
  3.115924e+01    3.477255e+04
  3.125078e+01    3.155463e+04
  3.134232e+01    1.902763e+04
  3.143387e+01    1.569064e+04
  3.152541e+01    1.419845e+04
  3.161695e+01    1.333602e+04
  3.170849e+01    1.280453e+04
  3.180003e+01    1.243774e+04
  3.189157e+01    1.218358e+04
  3.198311e+01    1.196875e+04
  3.207466e+01    1.179679e+04
  3.216620e+01    1.165041e+04
  3.225774e+01    1.152046e+04
  3.234928e+01    1.139620e+04
  3.244082e+01    1.135704e+04
  3.253236e+01    1.180505e+04
  3.262390e+01    1.297447e+04
  3.271545e+01    1.157771e+04
  3.280699e+01    1.089089e+04
  3.289853e+01    1.070600e+04
  3.299007e+01    1.057803e+04
  3.308161e+01    1.049360e+04
  3.317315e+01    1.045229e+04
  3.326469e+01    1.039808e+04
  3.335624e+01    1.037312e+04
  3.344778e+01    1.036999e+04
  3.353932e+01    1.035479e+04
  3.363086e+01    1.038854e+04
  3.372240e+01    1.057520e+04
  3.381394e+01    1.130825e+04
  3.390549e+01    1.587217e+04
  3.399703e+01    2.553525e+04
  3.408857e+01    1.542915e+04
  3.418011e+01    1.119868e+04
  3.427165e+01    1.047155e+04
  3.436319e+01    1.024455e+04
  3.445473e+01    1.009047e+04
  3.454628e+01    9.947875e+03
  3.463782e+01    9.832424e+03
  3.472936e+01    9.743221e+03
  3.482090e+01    9.700302e+03
  3.491244e+01    9.707298e+03
  3.500398e+01    9.768414e+03
  3.509552e+01    9.888041e+03
  3.518707e+01    9.952512e+03
  3.527861e+01    9.812304e+03
  3.537015e+01    9.598085e+03
  3.546169e+01    9.415318e+03
  3.555323e+01    9.285820e+03
  3.564477e+01    9.178923e+03
  3.573631e+01    9.121532e+03
  3.582786e+01    9.076994e+03
  3.591940e+01    9.049235e+03
  3.601094e+01    9.045688e+03
  3.610248e+01    9.048515e+03
  3.619402e+01    9.072299e+03
  3.628556e+01    9.126415e+03
  3.637710e+01    9.304350e+03
  3.646865e+01    1.008892e+04
  3.656019e+01    1.405126e+04
  3.665173e+01    1.330310e+04
  3.674327e+01    9.939234e+03
  3.683481e+01    9.364866e+03
  3.692635e+01    9.258615e+03
  3.701790e+01    9.259403e+03
  3.710944e+01    9.292391e+03
  3.720098e+01    9.397637e+03
  3.729252e+01    9.558237e+03
  3.738406e+01    9.784323e+03
  3.747560e+01    1.021246e+04
  3.756714e+01    1.126600e+04
  3.765869e+01    1.465035e+04
  3.775023e+01    3.497453e+04
  3.784177e+01    8.184105e+04
  3.793331e+01    3.581925e+04
  3.802485e+01    1.482929e+04
  3.811639e+01    1.132955e+04
  3.820793e+01    1.025835e+04
  3.829948e+01    9.820002e+03
  3.839102e+01    9.609798e+03
  3.848256e+01    9.504912e+03
  3.857410e+01    9.432624e+03
  3.866564e+01    9.361111e+03
  3.875718e+01    9.331298e+03
  3.884872e+01    9.357363e+03
  3.894027e+01    9.870986e+03
  3.903181e+01    1.188783e+04
  3.912335e+01    1.057930e+04
  3.921489e+01    9.354633e+03
  3.930643e+01    9.147152e+03
  3.939797e+01    9.091040e+03
  3.948951e+01    9.039670e+03
  3.958106e+01    9.009156e+03
  3.967260e+01    8.972840e+03
  3.976414e+01    8.947902e+03
  3.985568e+01    8.947928e+03
  3.994722e+01    8.960606e+03
  4.003876e+01    8.963703e+03
  4.013031e+01    9.173765e+03
  4.022185e+01    9.698185e+03
  4.031339e+01    9.324929e+03
  4.040493e+01    9.187816e+03
  4.049647e+01    9.260896e+03
  4.058801e+01    9.297450e+03
  4.067955e+01    9.239386e+03
  4.077110e+01    9.105765e+03
  4.086264e+01    8.974153e+03
  4.095418e+01    8.922548e+03
  4.104572e+01    8.909386e+03
  4.113726e+01    9.047896e+03
  4.122880e+01    9.759021e+03
  4.132034e+01    1.400436e+04
  4.141189e+01    1.542153e+04
  4.150343e+01    1.028002e+04
  4.159497e+01    9.265602e+03
  4.168651e+01    9.126781e+03
  4.177805e+01    9.091063e+03
  4.186959e+01    9.015122e+03
  4.196113e+01    8.947038e+03
  4.205268e+01    8.912411e+03
  4.214422e+01    8.895001e+03
  4.223576e+01    8.907926e+03
  4.232730e+01    9.003199e+03
  4.241884e+01    9.619820e+03
  4.251038e+01    1.048361e+04
  4.260192e+01    9.203719e+03
  4.269347e+01    8.738230e+03
  4.278501e+01    8.603414e+03
  4.287655e+01    8.530933e+03
  4.296809e+01    8.497186e+03
  4.305963e+01    8.488163e+03
  4.315117e+01    8.502560e+03
  4.324272e+01    8.547547e+03
  4.333426e+01    8.677770e+03
  4.342580e+01    9.123247e+03
  4.351734e+01    1.159691e+04
  4.360888e+01    1.513301e+04
  4.370042e+01    1.064341e+04
  4.379196e+01    9.272023e+03
  4.388351e+01    9.230004e+03
  4.397505e+01    9.435116e+03
  4.406659e+01    9.618306e+03
  4.415813e+01    9.782949e+03
  4.424967e+01    1.014802e+04
  4.434121e+01    1.073128e+04
  4.443275e+01    1.174030e+04
  4.452430e+01    1.460031e+04
  4.461584e+01    2.933691e+04
  4.470738e+01    3.418452e+04
  4.479892e+01    1.585820e+04
  4.489046e+01    1.149011e+04
  4.498200e+01    1.027741e+04
  4.507354e+01    9.654527e+03
  4.516509e+01    9.252513e+03
  4.525663e+01    9.028403e+03
  4.534817e+01    8.906569e+03
  4.543971e+01    8.889104e+03
  4.553125e+01    9.180091e+03
  4.562279e+01    1.092101e+04
  4.571433e+01    1.645205e+04
  4.580588e+01    1.234545e+04
  4.589742e+01    9.348567e+03
  4.598896e+01    8.798590e+03
  4.608050e+01    8.630562e+03
  4.617204e+01    8.571814e+03
  4.626358e+01    8.546975e+03
  4.635513e+01    8.523218e+03
  4.644667e+01    8.507510e+03
  4.653821e+01    8.554802e+03
  4.662975e+01    8.837323e+03
  4.672129e+01    1.035563e+04
  4.681283e+01    1.016191e+04
  4.690437e+01    8.897441e+03
  4.699592e+01    8.716591e+03
  4.708746e+01    8.781205e+03
  4.717900e+01    8.771754e+03
  4.727054e+01    8.712022e+03
  4.736208e+01    8.693976e+03
  4.745362e+01    8.780323e+03
  4.754516e+01    9.045263e+03
  4.763671e+01    9.476685e+03
  4.772825e+01    1.034562e+04
  4.781979e+01    9.775139e+03
  4.788844e+01    3.632302e+03