File: Output/ROCK_XRD/WAM39B_integrated/rampe1/wam39b_rampe_1_xrd_000015_integrated.dat
# == pyFAI calibration ==
# Distance Sample to Detector: 0.261615 m
# PONI: 2.023e-01, 2.348e-01 m
# Rotations: -0.026380 0.002005 0.000000 rad
#
# == Fit2d calibration ==
# Distance Sample-beamCenter: 261.707 mm
# Center: x=6119.331, y=5134.776 pix
# Tilt: 1.516 deg  TiltPlanRot: 4.347 deg
#
# Detector Rayonix SX165	 PixelSize= 3.950e-05, 3.950e-05 m
#    Detector has a mask: True
#    Detector has a dark current: False
#    detector has a flat field: False
#
# Wavelength: 1.12713e-10 m
# Mask applied: from detector
# Dark current applied: False
# Flat field applied: False
# Polarization factor: None
# Normalization factor: 1.0
# --> ROCK\\WAM39B_integrated\wam39b_rampe_1_xrd_000015_integrated.dat
#       2th_deg             I
  2.502596e+01    5.359882e+03
  2.511750e+01    2.197988e+04
  2.520905e+01    2.232433e+04
  2.530059e+01    2.254061e+04
  2.539213e+01    2.216748e+04
  2.548367e+01    2.260792e+04
  2.557521e+01    2.356347e+04
  2.566675e+01    2.457897e+04
  2.575829e+01    2.488240e+04
  2.584984e+01    2.410156e+04
  2.594138e+01    2.333286e+04
  2.603292e+01    2.337881e+04
  2.612446e+01    2.398722e+04
  2.621600e+01    2.531277e+04
  2.630754e+01    2.869003e+04
  2.639908e+01    3.696452e+04
  2.649063e+01    3.116635e+04
  2.658217e+01    2.637730e+04
  2.667371e+01    2.545939e+04
  2.676525e+01    2.471576e+04
  2.685679e+01    2.352582e+04
  2.694833e+01    2.205897e+04
  2.703988e+01    2.082266e+04
  2.713142e+01    1.995577e+04
  2.722296e+01    1.930586e+04
  2.731450e+01    1.886883e+04
  2.740604e+01    1.855312e+04
  2.749758e+01    1.841252e+04
  2.758912e+01    1.837402e+04
  2.768067e+01    1.849453e+04
  2.777221e+01    1.889622e+04
  2.786375e+01    1.990194e+04
  2.795529e+01    2.197209e+04
  2.804683e+01    2.517200e+04
  2.813837e+01    2.085062e+04
  2.822991e+01    1.790741e+04
  2.832146e+01    1.682010e+04
  2.841300e+01    1.616829e+04
  2.850454e+01    1.575850e+04
  2.859608e+01    1.546255e+04
  2.868762e+01    1.515774e+04
  2.877916e+01    1.492539e+04
  2.887070e+01    1.468671e+04
  2.896225e+01    1.446022e+04
  2.905379e+01    1.422681e+04
  2.914533e+01    1.402931e+04
  2.923687e+01    1.388886e+04
  2.932841e+01    1.374447e+04
  2.941995e+01    1.369362e+04
  2.951149e+01    1.412092e+04
  2.960304e+01    1.539770e+04
  2.969458e+01    1.394964e+04
  2.978612e+01    1.318910e+04
  2.987766e+01    1.299047e+04
  2.996920e+01    1.292486e+04
  3.006074e+01    1.292191e+04
  3.015228e+01    1.297974e+04
  3.024383e+01    1.304080e+04
  3.033537e+01    1.322766e+04
  3.042691e+01    1.352626e+04
  3.051845e+01    1.396629e+04
  3.060999e+01    1.466793e+04
  3.070153e+01    1.574353e+04
  3.079308e+01    1.718572e+04
  3.088462e+01    1.896940e+04
  3.097616e+01    2.322596e+04
  3.106770e+01    3.680568e+04
  3.115924e+01    2.690944e+04
  3.125078e+01    1.705471e+04
  3.134232e+01    1.457771e+04
  3.143387e+01    1.351479e+04
  3.152541e+01    1.290487e+04
  3.161695e+01    1.249506e+04
  3.170849e+01    1.219713e+04
  3.180003e+01    1.197388e+04
  3.189157e+01    1.179158e+04
  3.198311e+01    1.165394e+04
  3.207466e+01    1.150817e+04
  3.216620e+01    1.138768e+04
  3.225774e+01    1.128905e+04
  3.234928e+01    1.129883e+04
  3.244082e+01    1.200882e+04
  3.253236e+01    1.261749e+04
  3.262390e+01    1.117658e+04
  3.271545e+01    1.075060e+04
  3.280699e+01    1.060295e+04
  3.289853e+01    1.050702e+04
  3.299007e+01    1.042015e+04
  3.308161e+01    1.036570e+04
  3.317315e+01    1.032586e+04
  3.326469e+01    1.031771e+04
  3.335624e+01    1.030513e+04
  3.344778e+01    1.030436e+04
  3.353932e+01    1.035631e+04
  3.363086e+01    1.060104e+04
  3.372240e+01    1.178448e+04
  3.381394e+01    1.912270e+04
  3.390549e+01    2.324259e+04
  3.399703e+01    1.298976e+04
  3.408857e+01    1.074366e+04
  3.418011e+01    1.030563e+04
  3.427165e+01    1.014357e+04
  3.436319e+01    1.003315e+04
  3.445473e+01    9.889354e+03
  3.454628e+01    9.763420e+03
  3.463782e+01    9.671921e+03
  3.472936e+01    9.625354e+03
  3.482090e+01    9.630879e+03
  3.491244e+01    9.701057e+03
  3.500398e+01    9.824112e+03
  3.509552e+01    9.915536e+03
  3.518707e+01    9.791641e+03
  3.527861e+01    9.559023e+03
  3.537015e+01    9.375853e+03
  3.546169e+01    9.231412e+03
  3.555323e+01    9.126340e+03
  3.564477e+01    9.058286e+03
  3.573631e+01    9.007199e+03
  3.582786e+01    8.977237e+03
  3.591940e+01    8.976623e+03
  3.601094e+01    8.988607e+03
  3.610248e+01    9.014056e+03
  3.619402e+01    9.110764e+03
  3.628556e+01    9.386041e+03
  3.637710e+01    1.102010e+04
  3.646865e+01    1.490380e+04
  3.656019e+01    1.118758e+04
  3.665173e+01    9.488959e+03
  3.674327e+01    9.239492e+03
  3.683481e+01    9.189280e+03
  3.692635e+01    9.213457e+03
  3.701790e+01    9.268740e+03
  3.710944e+01    9.380583e+03
  3.720098e+01    9.589023e+03
  3.729252e+01    9.891175e+03
  3.738406e+01    1.050434e+04
  3.747560e+01    1.209159e+04
  3.756714e+01    1.907445e+04
  3.765869e+01    6.046417e+04
  3.775023e+01    6.516951e+04
  3.784177e+01    2.073993e+04
  3.793331e+01    1.246039e+04
  3.802485e+01    1.063306e+04
  3.811639e+01    9.990884e+03
  3.820793e+01    9.681908e+03
  3.829948e+01    9.531408e+03
  3.839102e+01    9.436806e+03
  3.848256e+01    9.371319e+03
  3.857410e+01    9.329748e+03
  3.866564e+01    9.312049e+03
  3.875718e+01    9.479421e+03
  3.884872e+01    1.074601e+04
  3.894027e+01    1.157465e+04
  3.903181e+01    9.661121e+03
  3.912335e+01    9.209684e+03
  3.921489e+01    9.115604e+03
  3.930643e+01    9.071097e+03
  3.939797e+01    9.047635e+03
  3.948951e+01    9.012539e+03
  3.958106e+01    8.998498e+03
  3.967260e+01    8.977614e+03
  3.976414e+01    8.941050e+03
  3.985568e+01    8.958349e+03
  3.994722e+01    9.043458e+03
  4.003876e+01    9.466769e+03
  4.013031e+01    9.510943e+03
  4.022185e+01    9.170431e+03
  4.031339e+01    9.230054e+03
  4.040493e+01    9.346092e+03
  4.049647e+01    9.351186e+03
  4.058801e+01    9.205112e+03
  4.067955e+01    9.046399e+03
  4.077110e+01    8.953284e+03
  4.086264e+01    8.916758e+03
  4.095418e+01    8.993368e+03
  4.104572e+01    9.321365e+03
  4.113726e+01    1.149708e+04
  4.122880e+01    1.643889e+04
  4.132034e+01    1.162761e+04
  4.141189e+01    9.547609e+03
  4.150343e+01    9.224220e+03
  4.159497e+01    9.056719e+03
  4.168651e+01    8.971031e+03
  4.177805e+01    8.895310e+03
  4.186959e+01    8.873521e+03
  4.196113e+01    8.889176e+03
  4.205268e+01    8.903070e+03
  4.214422e+01    8.953931e+03
  4.223576e+01    9.257991e+03
  4.232730e+01    1.038124e+04
  4.241884e+01    9.579159e+03
  4.251038e+01    8.825960e+03
  4.260192e+01    8.665460e+03
  4.269347e+01    8.601570e+03
  4.278501e+01    8.553736e+03
  4.287655e+01    8.533513e+03
  4.296809e+01    8.538104e+03
  4.305963e+01    8.560889e+03
  4.315117e+01    8.656046e+03
  4.324272e+01    8.930745e+03
  4.333426e+01    1.030418e+04
  4.342580e+01    1.496031e+04
  4.351734e+01    1.178678e+04
  4.360888e+01    9.464076e+03
  4.370042e+01    9.294491e+03
  4.379196e+01    9.529387e+03
  4.388351e+01    9.845354e+03
  4.397505e+01    1.008412e+04
  4.406659e+01    1.043769e+04
  4.415813e+01    1.095861e+04
  4.424967e+01    1.171327e+04
  4.434121e+01    1.342846e+04
  4.443275e+01    2.297737e+04
  4.452430e+01    3.671760e+04
  4.461584e+01    1.781517e+04
  4.470738e+01    1.146093e+04
  4.479892e+01    1.013143e+04
  4.489046e+01    9.585922e+03
  4.498200e+01    9.268557e+03
  4.507354e+01    9.051924e+03
  4.516509e+01    8.921239e+03
  4.525663e+01    8.888381e+03
  4.534817e+01    9.071269e+03
  4.543971e+01    1.017840e+04
  4.553125e+01    1.537105e+04
  4.562279e+01    1.339252e+04
  4.571433e+01    9.554618e+03
  4.580588e+01    8.864816e+03
  4.589742e+01    8.702275e+03
  4.598896e+01    8.616987e+03
  4.608050e+01    8.561071e+03
  4.617204e+01    8.524153e+03
  4.626358e+01    8.499526e+03
  4.635513e+01    8.505718e+03
  4.644667e+01    8.707990e+03
  4.653821e+01    1.000493e+04
  4.662975e+01    1.038378e+04
  4.672129e+01    8.909475e+03
  4.681283e+01    8.667324e+03
  4.690437e+01    8.681240e+03
  4.699592e+01    8.678907e+03
  4.708746e+01    8.605796e+03
  4.717900e+01    8.523516e+03
  4.727054e+01    8.528207e+03
  4.736208e+01    8.605146e+03
  4.745362e+01    8.888408e+03
  4.754516e+01    1.002489e+04
  4.763671e+01    1.060345e+04
  4.772825e+01    9.399564e+03
  4.781979e+01    8.796139e+03
  4.788844e+01    3.544496e+03