File: Output/ROCK_XRD/WAM39B_integrated/rampe1/wam39b_rampe_1_xrd_000027_integrated.dat
# == pyFAI calibration ==
# Distance Sample to Detector: 0.261615 m
# PONI: 2.023e-01, 2.348e-01 m
# Rotations: -0.026380 0.002005 0.000000 rad
#
# == Fit2d calibration ==
# Distance Sample-beamCenter: 261.707 mm
# Center: x=6119.331, y=5134.776 pix
# Tilt: 1.516 deg  TiltPlanRot: 4.347 deg
#
# Detector Rayonix SX165	 PixelSize= 3.950e-05, 3.950e-05 m
#    Detector has a mask: True
#    Detector has a dark current: False
#    detector has a flat field: False
#
# Wavelength: 1.12713e-10 m
# Mask applied: from detector
# Dark current applied: False
# Flat field applied: False
# Polarization factor: None
# Normalization factor: 1.0
# --> ROCK\\WAM39B_integrated\wam39b_rampe_1_xrd_000027_integrated.dat
#       2th_deg             I
  2.502596e+01    4.562604e+03
  2.511750e+01    1.871482e+04
  2.520905e+01    1.901218e+04
  2.530059e+01    1.913357e+04
  2.539213e+01    1.861260e+04
  2.548367e+01    1.857828e+04
  2.557521e+01    1.869363e+04
  2.566675e+01    1.874234e+04
  2.575829e+01    1.871970e+04
  2.584984e+01    1.815304e+04
  2.594138e+01    1.815925e+04
  2.603292e+01    1.858692e+04
  2.612446e+01    1.981888e+04
  2.621600e+01    2.489561e+04
  2.630754e+01    4.376300e+04
  2.639908e+01    4.757747e+04
  2.649063e+01    2.474947e+04
  2.658217e+01    1.910910e+04
  2.667371e+01    1.748450e+04
  2.676525e+01    1.681669e+04
  2.685679e+01    1.642403e+04
  2.694833e+01    1.616017e+04
  2.703988e+01    1.593589e+04
  2.713142e+01    1.575675e+04
  2.722296e+01    1.555312e+04
  2.731450e+01    1.539275e+04
  2.740604e+01    1.521377e+04
  2.749758e+01    1.510130e+04
  2.758912e+01    1.501417e+04
  2.768067e+01    1.498952e+04
  2.777221e+01    1.521859e+04
  2.786375e+01    1.671736e+04
  2.795529e+01    1.999962e+04
  2.804683e+01    1.638637e+04
  2.813837e+01    1.455036e+04
  2.822991e+01    1.405793e+04
  2.832146e+01    1.381596e+04
  2.841300e+01    1.360173e+04
  2.850454e+01    1.342505e+04
  2.859608e+01    1.328479e+04
  2.868762e+01    1.308848e+04
  2.877916e+01    1.290585e+04
  2.887070e+01    1.274612e+04
  2.896225e+01    1.255856e+04
  2.905379e+01    1.237680e+04
  2.914533e+01    1.222461e+04
  2.923687e+01    1.210056e+04
  2.932841e+01    1.204512e+04
  2.941995e+01    1.246490e+04
  2.951149e+01    1.335421e+04
  2.960304e+01    1.202657e+04
  2.969458e+01    1.148108e+04
  2.978612e+01    1.129661e+04
  2.987766e+01    1.121662e+04
  2.996920e+01    1.119336e+04
  3.006074e+01    1.124109e+04
  3.015228e+01    1.140455e+04
  3.024383e+01    1.178754e+04
  3.033537e+01    1.306342e+04
  3.042691e+01    1.900495e+04
  3.051845e+01    4.704785e+04
  3.060999e+01    3.816498e+04
  3.070153e+01    1.700044e+04
  3.079308e+01    1.362328e+04
  3.088462e+01    1.671276e+04
  3.097616e+01    2.765739e+04
  3.106770e+01    1.688135e+04
  3.115924e+01    1.154154e+04
  3.125078e+01    1.056665e+04
  3.134232e+01    1.021675e+04
  3.143387e+01    1.002339e+04
  3.152541e+01    9.890008e+03
  3.161695e+01    9.772956e+03
  3.170849e+01    9.691421e+03
  3.180003e+01    9.599588e+03
  3.189157e+01    9.525030e+03
  3.198311e+01    9.475642e+03
  3.207466e+01    9.415116e+03
  3.216620e+01    9.382304e+03
  3.225774e+01    9.488271e+03
  3.234928e+01    1.033096e+04
  3.244082e+01    1.029445e+04
  3.253236e+01    9.323966e+03
  3.262390e+01    9.100053e+03
  3.271545e+01    9.011381e+03
  3.280699e+01    8.950146e+03
  3.289853e+01    8.892589e+03
  3.299007e+01    8.843930e+03
  3.308161e+01    8.794687e+03
  3.317315e+01    8.769767e+03
  3.326469e+01    8.743344e+03
  3.335624e+01    8.747059e+03
  3.344778e+01    8.798015e+03
  3.353932e+01    9.066806e+03
  3.363086e+01    1.063346e+04
  3.372240e+01    1.872918e+04
  3.381394e+01    1.629302e+04
  3.390549e+01    9.808942e+03
  3.399703e+01    8.735814e+03
  3.408857e+01    8.452161e+03
  3.418011e+01    8.340384e+03
  3.427165e+01    8.241498e+03
  3.436319e+01    8.175244e+03
  3.445473e+01    8.108551e+03
  3.454628e+01    8.064364e+03
  3.463782e+01    8.028948e+03
  3.472936e+01    8.100901e+03
  3.482090e+01    8.117582e+03
  3.491244e+01    7.924507e+03
  3.500398e+01    7.848645e+03
  3.509552e+01    7.798440e+03
  3.518707e+01    7.757996e+03
  3.527861e+01    7.725623e+03
  3.537015e+01    7.692613e+03
  3.546169e+01    7.652021e+03
  3.555323e+01    7.620096e+03
  3.564477e+01    7.589496e+03
  3.573631e+01    7.579633e+03
  3.582786e+01    7.578061e+03
  3.591940e+01    7.578856e+03
  3.601094e+01    7.624938e+03
  3.610248e+01    7.722643e+03
  3.619402e+01    8.127608e+03
  3.628556e+01    1.057585e+04
  3.637710e+01    1.164773e+04
  3.646865e+01    8.456829e+03
  3.656019e+01    7.860258e+03
  3.665173e+01    7.760009e+03
  3.674327e+01    7.757716e+03
  3.683481e+01    7.789583e+03
  3.692635e+01    7.850660e+03
  3.701790e+01    7.943690e+03
  3.710944e+01    8.120217e+03
  3.720098e+01    8.418052e+03
  3.729252e+01    9.039643e+03
  3.738406e+01    1.112085e+04
  3.747560e+01    2.404562e+04
  3.756714e+01    6.530531e+04
  3.765869e+01    3.170180e+04
  3.775023e+01    1.225346e+04
  3.784177e+01    9.360471e+03
  3.793331e+01    8.576406e+03
  3.802485e+01    8.207077e+03
  3.811639e+01    8.040412e+03
  3.820793e+01    7.942922e+03
  3.829948e+01    7.880115e+03
  3.839102e+01    7.844250e+03
  3.848256e+01    7.858848e+03
  3.857410e+01    7.949235e+03
  3.866564e+01    8.288882e+03
  3.875718e+01    9.825812e+03
  3.884872e+01    8.804124e+03
  3.894027e+01    7.911643e+03
  3.903181e+01    7.762144e+03
  3.912335e+01    7.718999e+03
  3.921489e+01    7.685743e+03
  3.930643e+01    7.647442e+03
  3.939797e+01    7.623320e+03
  3.948951e+01    7.585396e+03
  3.958106e+01    7.573039e+03
  3.967260e+01    7.532919e+03
  3.976414e+01    7.529982e+03
  3.985568e+01    7.683294e+03
  3.994722e+01    8.023049e+03
  4.003876e+01    7.610024e+03
  4.013031e+01    7.468583e+03
  4.022185e+01    7.425506e+03
  4.031339e+01    7.414814e+03
  4.040493e+01    7.393500e+03
  4.049647e+01    7.372476e+03
  4.058801e+01    7.363401e+03
  4.067955e+01    7.376657e+03
  4.077110e+01    7.420206e+03
  4.086264e+01    7.560645e+03
  4.095418e+01    8.277000e+03
  4.104572e+01    1.229594e+04
  4.113726e+01    1.144834e+04
  4.122880e+01    8.058260e+03
  4.132034e+01    7.566452e+03
  4.141189e+01    7.370107e+03
  4.150343e+01    7.293789e+03
  4.159497e+01    7.273674e+03
  4.168651e+01    7.265537e+03
  4.177805e+01    7.244610e+03
  4.186959e+01    7.237254e+03
  4.196113e+01    7.243707e+03
  4.205268e+01    7.359583e+03
  4.214422e+01    8.069998e+03
  4.223576e+01    8.249183e+03
  4.232730e+01    7.396725e+03
  4.241884e+01    7.234456e+03
  4.251038e+01    7.203868e+03
  4.260192e+01    7.195771e+03
  4.269347e+01    7.197758e+03
  4.278501e+01    7.218770e+03
  4.287655e+01    7.235738e+03
  4.296809e+01    7.297023e+03
  4.305963e+01    7.434514e+03
  4.315117e+01    8.009311e+03
  4.324272e+01    1.124500e+04
  4.333426e+01    1.126814e+04
  4.342580e+01    8.368539e+03
  4.351734e+01    8.409427e+03
  4.360888e+01    1.096759e+04
  4.370042e+01    2.291366e+04
  4.379196e+01    1.798142e+04
  4.388351e+01    9.623633e+03
  4.397505e+01    8.164047e+03
  4.406659e+01    7.948230e+03
  4.415813e+01    8.529194e+03
  4.424967e+01    1.293101e+04
  4.434121e+01    2.834108e+04
  4.443275e+01    1.703665e+04
  4.452430e+01    8.971994e+03
  4.461584e+01    7.715080e+03
  4.470738e+01    7.349418e+03
  4.479892e+01    7.213104e+03
  4.489046e+01    7.128811e+03
  4.498200e+01    7.108554e+03
  4.507354e+01    7.108186e+03
  4.516509e+01    7.212823e+03
  4.525663e+01    7.751887e+03
  4.534817e+01    1.105508e+04
  4.543971e+01    1.193754e+04
  4.553125e+01    7.946335e+03
  4.562279e+01    7.138654e+03
  4.571433e+01    6.971062e+03
  4.580588e+01    6.901314e+03
  4.589742e+01    6.858394e+03
  4.598896e+01    6.824950e+03
  4.608050e+01    7.411867e+03
  4.617204e+01    6.809683e+03
  4.626358e+01    6.930212e+03
  4.635513e+01    7.687503e+03
  4.644667e+01    8.615915e+03
  4.653821e+01    7.323646e+03
  4.662975e+01    6.945251e+03
  4.672129e+01    6.868360e+03
  4.681283e+01    6.909976e+03
  4.690437e+01    6.893020e+03
  4.699592e+01    6.900802e+03
  4.708746e+01    6.952792e+03
  4.717900e+01    7.029900e+03
  4.727054e+01    7.165441e+03
  4.736208e+01    7.758281e+03
  4.745362e+01    8.513866e+03
  4.754516e+01    7.869038e+03
  4.763671e+01    7.828209e+03
  4.772825e+01    7.649875e+03
  4.781979e+01    7.284794e+03
  4.788844e+01    2.936224e+03