File: Output/ROCK_XRD/WAM39B_integrated/rampe1/wam39b_rampe_1_xrd_000016_integrated.dat
# == pyFAI calibration ==
# Distance Sample to Detector: 0.261615 m
# PONI: 2.023e-01, 2.348e-01 m
# Rotations: -0.026380 0.002005 0.000000 rad
#
# == Fit2d calibration ==
# Distance Sample-beamCenter: 261.707 mm
# Center: x=6119.331, y=5134.776 pix
# Tilt: 1.516 deg  TiltPlanRot: 4.347 deg
#
# Detector Rayonix SX165	 PixelSize= 3.950e-05, 3.950e-05 m
#    Detector has a mask: True
#    Detector has a dark current: False
#    detector has a flat field: False
#
# Wavelength: 1.12713e-10 m
# Mask applied: from detector
# Dark current applied: False
# Flat field applied: False
# Polarization factor: None
# Normalization factor: 1.0
# --> ROCK\\WAM39B_integrated\wam39b_rampe_1_xrd_000016_integrated.dat
#       2th_deg             I
  2.502596e+01    4.840724e+03
  2.511750e+01    1.989073e+04
  2.520905e+01    2.024222e+04
  2.530059e+01    2.043100e+04
  2.539213e+01    2.011185e+04
  2.548367e+01    2.056154e+04
  2.557521e+01    2.149646e+04
  2.566675e+01    2.237280e+04
  2.575829e+01    2.259118e+04
  2.584984e+01    2.177410e+04
  2.594138e+01    2.111454e+04
  2.603292e+01    2.126698e+04
  2.612446e+01    2.191110e+04
  2.621600e+01    2.328019e+04
  2.630754e+01    2.694884e+04
  2.639908e+01    3.402925e+04
  2.649063e+01    2.745367e+04
  2.658217e+01    2.387923e+04
  2.667371e+01    2.311999e+04
  2.676525e+01    2.237944e+04
  2.685679e+01    2.119448e+04
  2.694833e+01    1.984589e+04
  2.703988e+01    1.875885e+04
  2.713142e+01    1.800972e+04
  2.722296e+01    1.743609e+04
  2.731450e+01    1.708069e+04
  2.740604e+01    1.679876e+04
  2.749758e+01    1.668383e+04
  2.758912e+01    1.667638e+04
  2.768067e+01    1.683646e+04
  2.777221e+01    1.726799e+04
  2.786375e+01    1.829816e+04
  2.795529e+01    2.047312e+04
  2.804683e+01    2.277578e+04
  2.813837e+01    1.833636e+04
  2.822991e+01    1.604354e+04
  2.832146e+01    1.515319e+04
  2.841300e+01    1.461729e+04
  2.850454e+01    1.425425e+04
  2.859608e+01    1.398424e+04
  2.868762e+01    1.372254e+04
  2.877916e+01    1.350223e+04
  2.887070e+01    1.330588e+04
  2.896225e+01    1.311168e+04
  2.905379e+01    1.289751e+04
  2.914533e+01    1.273318e+04
  2.923687e+01    1.260395e+04
  2.932841e+01    1.246564e+04
  2.941995e+01    1.244968e+04
  2.951149e+01    1.298917e+04
  2.960304e+01    1.395666e+04
  2.969458e+01    1.249607e+04
  2.978612e+01    1.193299e+04
  2.987766e+01    1.178979e+04
  2.996920e+01    1.173523e+04
  3.006074e+01    1.174993e+04
  3.015228e+01    1.179634e+04
  3.024383e+01    1.187676e+04
  3.033537e+01    1.206146e+04
  3.042691e+01    1.235913e+04
  3.051845e+01    1.280837e+04
  3.060999e+01    1.351889e+04
  3.070153e+01    1.456574e+04
  3.079308e+01    1.594734e+04
  3.088462e+01    1.766555e+04
  3.097616e+01    2.257448e+04
  3.106770e+01    3.428696e+04
  3.115924e+01    2.211770e+04
  3.125078e+01    1.491703e+04
  3.134232e+01    1.300211e+04
  3.143387e+01    1.215927e+04
  3.152541e+01    1.163540e+04
  3.161695e+01    1.128938e+04
  3.170849e+01    1.104438e+04
  3.180003e+01    1.085778e+04
  3.189157e+01    1.069753e+04
  3.198311e+01    1.056315e+04
  3.207466e+01    1.043979e+04
  3.216620e+01    1.033529e+04
  3.225774e+01    1.024171e+04
  3.234928e+01    1.030497e+04
  3.244082e+01    1.112827e+04
  3.253236e+01    1.125226e+04
  3.262390e+01    1.003916e+04
  3.271545e+01    9.738522e+03
  3.280699e+01    9.611299e+03
  3.289853e+01    9.532259e+03
  3.299007e+01    9.461571e+03
  3.308161e+01    9.405465e+03
  3.317315e+01    9.369237e+03
  3.326469e+01    9.359665e+03
  3.335624e+01    9.351758e+03
  3.344778e+01    9.353632e+03
  3.353932e+01    9.419493e+03
  3.363086e+01    9.717055e+03
  3.372240e+01    1.119838e+04
  3.381394e+01    1.938775e+04
  3.390549e+01    1.934194e+04
  3.399703e+01    1.112843e+04
  3.408857e+01    9.640653e+03
  3.418011e+01    9.334456e+03
  3.427165e+01    9.206099e+03
  3.436319e+01    9.091997e+03
  3.445473e+01    8.967319e+03
  3.454628e+01    8.849638e+03
  3.463782e+01    8.774316e+03
  3.472936e+01    8.743553e+03
  3.482090e+01    8.752540e+03
  3.491244e+01    8.835298e+03
  3.500398e+01    8.959551e+03
  3.509552e+01    9.012410e+03
  3.518707e+01    8.866085e+03
  3.527861e+01    8.652510e+03
  3.537015e+01    8.483154e+03
  3.546169e+01    8.374227e+03
  3.555323e+01    8.283103e+03
  3.564477e+01    8.224551e+03
  3.573631e+01    8.181532e+03
  3.582786e+01    8.166542e+03
  3.591940e+01    8.150608e+03
  3.601094e+01    8.165233e+03
  3.610248e+01    8.208471e+03
  3.619402e+01    8.308229e+03
  3.628556e+01    8.637732e+03
  3.637710e+01    1.070934e+04
  3.646865e+01    1.336886e+04
  3.656019e+01    9.625515e+03
  3.665173e+01    8.534354e+03
  3.674327e+01    8.376982e+03
  3.683481e+01    8.353953e+03
  3.692635e+01    8.379287e+03
  3.701790e+01    8.441289e+03
  3.710944e+01    8.556849e+03
  3.720098e+01    8.772675e+03
  3.729252e+01    9.076997e+03
  3.738406e+01    9.719866e+03
  3.747560e+01    1.155789e+04
  3.756714e+01    2.081719e+04
  3.765869e+01    6.494441e+04
  3.775023e+01    4.874088e+04
  3.784177e+01    1.611592e+04
  3.793331e+01    1.083462e+04
  3.802485e+01    9.507074e+03
  3.811639e+01    9.007472e+03
  3.820793e+01    8.771097e+03
  3.829948e+01    8.658037e+03
  3.839102e+01    8.577035e+03
  3.848256e+01    8.515074e+03
  3.857410e+01    8.473290e+03
  3.866564e+01    8.477016e+03
  3.875718e+01    8.710579e+03
  3.884872e+01    1.020525e+04
  3.894027e+01    1.015536e+04
  3.903181e+01    8.636264e+03
  3.912335e+01    8.356513e+03
  3.921489e+01    8.286463e+03
  3.930643e+01    8.247229e+03
  3.939797e+01    8.242268e+03
  3.948951e+01    8.200994e+03
  3.958106e+01    8.191203e+03
  3.967260e+01    8.166278e+03
  3.976414e+01    8.141521e+03
  3.985568e+01    8.153728e+03
  3.994722e+01    8.264904e+03
  4.003876e+01    8.718221e+03
  4.013031e+01    8.559339e+03
  4.022185e+01    8.339493e+03
  4.031339e+01    8.429816e+03
  4.040493e+01    8.516637e+03
  4.049647e+01    8.483985e+03
  4.058801e+01    8.349353e+03
  4.067955e+01    8.214541e+03
  4.077110e+01    8.134107e+03
  4.086264e+01    8.109327e+03
  4.095418e+01    8.212221e+03
  4.104572e+01    8.662155e+03
  4.113726e+01    1.154855e+04
  4.122880e+01    1.461509e+04
  4.132034e+01    9.817222e+03
  4.141189e+01    8.596170e+03
  4.150343e+01    8.357063e+03
  4.159497e+01    8.206324e+03
  4.168651e+01    8.141330e+03
  4.177805e+01    8.096725e+03
  4.186959e+01    8.089745e+03
  4.196113e+01    8.094665e+03
  4.205268e+01    8.130342e+03
  4.214422e+01    8.178897e+03
  4.223576e+01    8.598619e+03
  4.232730e+01    9.500067e+03
  4.241884e+01    8.471206e+03
  4.251038e+01    7.998801e+03
  4.260192e+01    7.869921e+03
  4.269347e+01    7.820819e+03
  4.278501e+01    7.782542e+03
  4.287655e+01    7.760103e+03
  4.296809e+01    7.778439e+03
  4.305963e+01    7.816156e+03
  4.315117e+01    7.921629e+03
  4.324272e+01    8.255415e+03
  4.333426e+01    1.018425e+04
  4.342580e+01    1.374750e+04
  4.351734e+01    9.863669e+03
  4.360888e+01    8.520511e+03
  4.370042e+01    8.494711e+03
  4.379196e+01    8.745650e+03
  4.388351e+01    9.043586e+03
  4.397505e+01    9.283050e+03
  4.406659e+01    9.651280e+03
  4.415813e+01    1.015341e+04
  4.424967e+01    1.090633e+04
  4.434121e+01    1.309978e+04
  4.443275e+01    2.556560e+04
  4.452430e+01    3.045169e+04
  4.461584e+01    1.377800e+04
  4.470738e+01    9.972209e+03
  4.479892e+01    9.058815e+03
  4.489046e+01    8.638209e+03
  4.498200e+01    8.386753e+03
  4.507354e+01    8.200750e+03
  4.516509e+01    8.106166e+03
  4.525663e+01    8.113533e+03
  4.534817e+01    8.361294e+03
  4.543971e+01    9.964658e+03
  4.553125e+01    1.472961e+04
  4.562279e+01    1.085896e+04
  4.571433e+01    8.447750e+03
  4.580588e+01    8.011774e+03
  4.589742e+01    7.906891e+03
  4.598896e+01    7.833606e+03
  4.608050e+01    7.792875e+03
  4.617204e+01    7.752581e+03
  4.626358e+01    7.748359e+03
  4.635513e+01    7.769811e+03
  4.644667e+01    8.060966e+03
  4.653821e+01    9.542802e+03
  4.662975e+01    9.053624e+03
  4.672129e+01    7.999960e+03
  4.681283e+01    7.877880e+03
  4.690437e+01    7.906396e+03
  4.699592e+01    7.871287e+03
  4.708746e+01    7.787285e+03
  4.717900e+01    7.735476e+03
  4.727054e+01    7.744129e+03
  4.736208e+01    7.833173e+03
  4.745362e+01    8.185816e+03
  4.754516e+01    9.444860e+03
  4.763671e+01    9.354634e+03
  4.772825e+01    8.461578e+03
  4.781979e+01    7.997209e+03
  4.788844e+01    3.241292e+03