File: Output/ROCK_XRD/WAM39B_integrated/rampe1/wam39b_rampe_1_xrd_000021_integrated.dat
# == pyFAI calibration ==
# Distance Sample to Detector: 0.261615 m
# PONI: 2.023e-01, 2.348e-01 m
# Rotations: -0.026380 0.002005 0.000000 rad
#
# == Fit2d calibration ==
# Distance Sample-beamCenter: 261.707 mm
# Center: x=6119.331, y=5134.776 pix
# Tilt: 1.516 deg  TiltPlanRot: 4.347 deg
#
# Detector Rayonix SX165	 PixelSize= 3.950e-05, 3.950e-05 m
#    Detector has a mask: True
#    Detector has a dark current: False
#    detector has a flat field: False
#
# Wavelength: 1.12713e-10 m
# Mask applied: from detector
# Dark current applied: False
# Flat field applied: False
# Polarization factor: None
# Normalization factor: 1.0
# --> ROCK\\WAM39B_integrated\wam39b_rampe_1_xrd_000021_integrated.dat
#       2th_deg             I
  2.502596e+01    4.309556e+03
  2.511750e+01    1.777773e+04
  2.520905e+01    1.807167e+04
  2.530059e+01    1.821280e+04
  2.539213e+01    1.802606e+04
  2.548367e+01    1.865149e+04
  2.557521e+01    1.960083e+04
  2.566675e+01    2.025804e+04
  2.575829e+01    2.009086e+04
  2.584984e+01    1.875432e+04
  2.594138e+01    1.836183e+04
  2.603292e+01    1.888168e+04
  2.612446e+01    1.999007e+04
  2.621600e+01    2.250476e+04
  2.630754e+01    2.960816e+04
  2.639908e+01    2.964480e+04
  2.649063e+01    2.525929e+04
  2.658217e+01    2.429975e+04
  2.667371e+01    2.257281e+04
  2.676525e+01    2.009884e+04
  2.685679e+01    1.803871e+04
  2.694833e+01    1.674262e+04
  2.703988e+01    1.596804e+04
  2.713142e+01    1.552165e+04
  2.722296e+01    1.517874e+04
  2.731450e+01    1.499988e+04
  2.740604e+01    1.486581e+04
  2.749758e+01    1.487420e+04
  2.758912e+01    1.501887e+04
  2.768067e+01    1.537867e+04
  2.777221e+01    1.629746e+04
  2.786375e+01    1.835447e+04
  2.795529e+01    2.115180e+04
  2.804683e+01    1.810657e+04
  2.813837e+01    1.479209e+04
  2.822991e+01    1.373965e+04
  2.832146e+01    1.326868e+04
  2.841300e+01    1.294245e+04
  2.850454e+01    1.272690e+04
  2.859608e+01    1.254741e+04
  2.868762e+01    1.234388e+04
  2.877916e+01    1.217226e+04
  2.887070e+01    1.200940e+04
  2.896225e+01    1.182346e+04
  2.905379e+01    1.166029e+04
  2.914533e+01    1.150133e+04
  2.923687e+01    1.140106e+04
  2.932841e+01    1.134371e+04
  2.941995e+01    1.156712e+04
  2.951149e+01    1.261731e+04
  2.960304e+01    1.175147e+04
  2.969458e+01    1.091703e+04
  2.978612e+01    1.070621e+04
  2.987766e+01    1.059942e+04
  2.996920e+01    1.055848e+04
  3.006074e+01    1.056278e+04
  3.015228e+01    1.062237e+04
  3.024383e+01    1.071191e+04
  3.033537e+01    1.094949e+04
  3.042691e+01    1.142075e+04
  3.051845e+01    1.239456e+04
  3.060999e+01    1.424428e+04
  3.070153e+01    1.676098e+04
  3.079308e+01    1.869145e+04
  3.088462e+01    2.055566e+04
  3.097616e+01    2.932071e+04
  3.106770e+01    2.321910e+04
  3.115924e+01    1.354416e+04
  3.125078e+01    1.132248e+04
  3.134232e+01    1.053029e+04
  3.143387e+01    1.012100e+04
  3.152541e+01    9.873301e+03
  3.161695e+01    9.711881e+03
  3.170849e+01    9.620216e+03
  3.180003e+01    9.562685e+03
  3.189157e+01    9.557926e+03
  3.198311e+01    9.555020e+03
  3.207466e+01    9.561026e+03
  3.216620e+01    9.519102e+03
  3.225774e+01    9.482779e+03
  3.234928e+01    9.903335e+03
  3.244082e+01    1.048097e+04
  3.253236e+01    9.284863e+03
  3.262390e+01    8.872370e+03
  3.271545e+01    8.734604e+03
  3.280699e+01    8.634506e+03
  3.289853e+01    8.581529e+03
  3.299007e+01    8.518965e+03
  3.308161e+01    8.480256e+03
  3.317315e+01    8.465254e+03
  3.326469e+01    8.469426e+03
  3.335624e+01    8.473076e+03
  3.344778e+01    8.505077e+03
  3.353932e+01    8.691161e+03
  3.363086e+01    9.600046e+03
  3.372240e+01    1.519355e+04
  3.381394e+01    1.923084e+04
  3.390549e+01    1.081731e+04
  3.399703e+01    8.799950e+03
  3.408857e+01    8.419542e+03
  3.418011e+01    8.296458e+03
  3.427165e+01    8.207642e+03
  3.436319e+01    8.094997e+03
  3.445473e+01    7.978625e+03
  3.454628e+01    7.896041e+03
  3.463782e+01    7.857309e+03
  3.472936e+01    7.872510e+03
  3.482090e+01    7.958610e+03
  3.491244e+01    8.181525e+03
  3.500398e+01    8.352114e+03
  3.509552e+01    8.112042e+03
  3.518707e+01    7.821580e+03
  3.527861e+01    7.656405e+03
  3.537015e+01    7.548852e+03
  3.546169e+01    7.474593e+03
  3.555323e+01    7.423420e+03
  3.564477e+01    7.380632e+03
  3.573631e+01    7.369590e+03
  3.582786e+01    7.354689e+03
  3.591940e+01    7.362601e+03
  3.601094e+01    7.393056e+03
  3.610248e+01    7.468098e+03
  3.619402e+01    7.731060e+03
  3.628556e+01    9.157803e+03
  3.637710e+01    1.211510e+04
  3.646865e+01    9.042397e+03
  3.656019e+01    7.786987e+03
  3.665173e+01    7.588511e+03
  3.674327e+01    7.553749e+03
  3.683481e+01    7.568470e+03
  3.692635e+01    7.617184e+03
  3.701790e+01    7.705214e+03
  3.710944e+01    7.886215e+03
  3.720098e+01    8.150082e+03
  3.729252e+01    8.691696e+03
  3.738406e+01    1.014357e+04
  3.747560e+01    1.693192e+04
  3.756714e+01    5.263750e+04
  3.765869e+01    4.954584e+04
  3.775023e+01    1.597764e+04
  3.784177e+01    1.004724e+04
  3.793331e+01    8.690142e+03
  3.802485e+01    8.159116e+03
  3.811639e+01    7.934210e+03
  3.820793e+01    7.834896e+03
  3.829948e+01    7.828686e+03
  3.839102e+01    7.775568e+03
  3.848256e+01    7.705624e+03
  3.857410e+01    7.683366e+03
  3.866564e+01    7.843228e+03
  3.875718e+01    9.029526e+03
  3.884872e+01    9.304827e+03
  3.894027e+01    7.868440e+03
  3.903181e+01    7.581835e+03
  3.912335e+01    7.521466e+03
  3.921489e+01    7.510558e+03
  3.930643e+01    7.501672e+03
  3.939797e+01    7.517225e+03
  3.948951e+01    7.525002e+03
  3.958106e+01    7.536301e+03
  3.967260e+01    7.516452e+03
  3.976414e+01    7.477281e+03
  3.985568e+01    7.500071e+03
  3.994722e+01    7.859418e+03
  4.003876e+01    7.703831e+03
  4.013031e+01    7.467691e+03
  4.022185e+01    7.518123e+03
  4.031339e+01    7.608419e+03
  4.040493e+01    7.583908e+03
  4.049647e+01    7.454060e+03
  4.058801e+01    7.329759e+03
  4.067955e+01    7.267414e+03
  4.077110e+01    7.269333e+03
  4.086264e+01    7.370722e+03
  4.095418e+01    7.769224e+03
  4.104572e+01    1.021510e+04
  4.113726e+01    1.312734e+04
  4.122880e+01    8.985767e+03
  4.132034e+01    7.825952e+03
  4.141189e+01    7.507692e+03
  4.150343e+01    7.348122e+03
  4.159497e+01    7.311291e+03
  4.168651e+01    7.336554e+03
  4.177805e+01    7.399746e+03
  4.186959e+01    7.502565e+03
  4.196113e+01    7.638920e+03
  4.205268e+01    7.809617e+03
  4.214422e+01    8.221625e+03
  4.223576e+01    8.954112e+03
  4.232730e+01    7.969391e+03
  4.241884e+01    7.436519e+03
  4.251038e+01    7.248082e+03
  4.260192e+01    7.143721e+03
  4.269347e+01    7.083275e+03
  4.278501e+01    7.050072e+03
  4.287655e+01    7.037605e+03
  4.296809e+01    7.073691e+03
  4.305963e+01    7.150737e+03
  4.315117e+01    7.454107e+03
  4.324272e+01    9.245117e+03
  4.333426e+01    1.219824e+04
  4.342580e+01    8.782810e+03
  4.351734e+01    7.620481e+03
  4.360888e+01    7.611928e+03
  4.370042e+01    7.954892e+03
  4.379196e+01    8.457858e+03
  4.388351e+01    8.995450e+03
  4.397505e+01    9.816002e+03
  4.406659e+01    1.052585e+04
  4.415813e+01    1.091039e+04
  4.424967e+01    1.241256e+04
  4.434121e+01    2.352878e+04
  4.443275e+01    2.567483e+04
  4.452430e+01    1.153899e+04
  4.461584e+01    8.505457e+03
  4.470738e+01    7.778139e+03
  4.479892e+01    7.489440e+03
  4.489046e+01    7.290552e+03
  4.498200e+01    7.165161e+03
  4.507354e+01    7.121541e+03
  4.516509e+01    7.141579e+03
  4.525663e+01    7.407041e+03
  4.534817e+01    9.103598e+03
  4.543971e+01    1.301553e+04
  4.553125e+01    9.354949e+03
  4.562279e+01    7.541895e+03
  4.571433e+01    7.296690e+03
  4.580588e+01    7.311981e+03
  4.589742e+01    7.384985e+03
  4.598896e+01    7.447520e+03
  4.608050e+01    7.437287e+03
  4.617204e+01    7.352672e+03
  4.626358e+01    7.276135e+03
  4.635513e+01    7.489631e+03
  4.644667e+01    8.741823e+03
  4.653821e+01    8.048452e+03
  4.662975e+01    7.266969e+03
  4.672129e+01    7.193398e+03
  4.681283e+01    7.187880e+03
  4.690437e+01    7.041940e+03
  4.699592e+01    6.914095e+03
  4.708746e+01    6.864195e+03
  4.717900e+01    6.868090e+03
  4.727054e+01    6.966855e+03
  4.736208e+01    7.264834e+03
  4.745362e+01    8.284318e+03
  4.754516e+01    8.066203e+03
  4.763671e+01    7.735371e+03
  4.772825e+01    7.564773e+03
  4.781979e+01    7.267028e+03
  4.788844e+01    2.938814e+03