File: Output/ROCK_XRD/WAM39B_integrated/rampe1/wam39b_rampe_1_xrd_000038_integrated.dat
# == pyFAI calibration ==
# Distance Sample to Detector: 0.261615 m
# PONI: 2.023e-01, 2.348e-01 m
# Rotations: -0.026380 0.002005 0.000000 rad
#
# == Fit2d calibration ==
# Distance Sample-beamCenter: 261.707 mm
# Center: x=6119.331, y=5134.776 pix
# Tilt: 1.516 deg  TiltPlanRot: 4.347 deg
#
# Detector Rayonix SX165	 PixelSize= 3.950e-05, 3.950e-05 m
#    Detector has a mask: True
#    Detector has a dark current: False
#    detector has a flat field: False
#
# Wavelength: 1.12713e-10 m
# Mask applied: from detector
# Dark current applied: False
# Flat field applied: False
# Polarization factor: None
# Normalization factor: 1.0
# --> ROCK\\WAM39B_integrated\wam39b_rampe_1_xrd_000038_integrated.dat
#       2th_deg             I
  2.502596e+01    3.919025e+03
  2.511750e+01    1.618595e+04
  2.520905e+01    1.644082e+04
  2.530059e+01    1.651282e+04
  2.539213e+01    1.601749e+04
  2.548367e+01    1.593541e+04
  2.557521e+01    1.583288e+04
  2.566675e+01    1.576792e+04
  2.575829e+01    1.560521e+04
  2.584984e+01    1.549250e+04
  2.594138e+01    1.561397e+04
  2.603292e+01    1.618309e+04
  2.612446e+01    1.826166e+04
  2.621600e+01    3.062519e+04
  2.630754e+01    5.118491e+04
  2.639908e+01    2.301818e+04
  2.649063e+01    1.650912e+04
  2.658217e+01    1.508468e+04
  2.667371e+01    1.456351e+04
  2.676525e+01    1.425296e+04
  2.685679e+01    1.402147e+04
  2.694833e+01    1.381874e+04
  2.703988e+01    1.365601e+04
  2.713142e+01    1.353125e+04
  2.722296e+01    1.336135e+04
  2.731450e+01    1.322607e+04
  2.740604e+01    1.306395e+04
  2.749758e+01    1.297987e+04
  2.758912e+01    1.290438e+04
  2.768067e+01    1.286946e+04
  2.777221e+01    1.313181e+04
  2.786375e+01    1.540426e+04
  2.795529e+01    1.573426e+04
  2.804683e+01    1.286552e+04
  2.813837e+01    1.225673e+04
  2.822991e+01    1.200498e+04
  2.832146e+01    1.183823e+04
  2.841300e+01    1.165541e+04
  2.850454e+01    1.151759e+04
  2.859608e+01    1.137978e+04
  2.868762e+01    1.121433e+04
  2.877916e+01    1.107022e+04
  2.887070e+01    1.091255e+04
  2.896225e+01    1.075363e+04
  2.905379e+01    1.059167e+04
  2.914533e+01    1.045350e+04
  2.923687e+01    1.034241e+04
  2.932841e+01    1.037523e+04
  2.941995e+01    1.126190e+04
  2.951149e+01    1.094394e+04
  2.960304e+01    9.954273e+03
  2.969458e+01    9.713095e+03
  2.978612e+01    9.595285e+03
  2.987766e+01    9.521014e+03
  2.996920e+01    9.510100e+03
  3.006074e+01    9.554747e+03
  3.015228e+01    9.723870e+03
  3.024383e+01    1.037435e+04
  3.033537e+01    1.448851e+04
  3.042691e+01    4.321557e+04
  3.051845e+01    3.623277e+04
  3.060999e+01    1.276173e+04
  3.070153e+01    1.027583e+04
  3.079308e+01    1.087816e+04
  3.088462e+01    1.931332e+04
  3.097616e+01    2.024720e+04
  3.106770e+01    1.050976e+04
  3.115924e+01    9.058292e+03
  3.125078e+01    8.708504e+03
  3.134232e+01    8.531155e+03
  3.143387e+01    8.434809e+03
  3.152541e+01    8.329992e+03
  3.161695e+01    8.260079e+03
  3.170849e+01    8.196412e+03
  3.180003e+01    8.130706e+03
  3.189157e+01    8.077468e+03
  3.198311e+01    8.020422e+03
  3.207466e+01    7.983804e+03
  3.216620e+01    7.976901e+03
  3.225774e+01    8.271522e+03
  3.234928e+01    9.192955e+03
  3.244082e+01    8.136692e+03
  3.253236e+01    7.776826e+03
  3.262390e+01    7.686663e+03
  3.271545e+01    7.632337e+03
  3.280699e+01    7.577091e+03
  3.289853e+01    7.530828e+03
  3.299007e+01    7.482728e+03
  3.308161e+01    7.445484e+03
  3.317315e+01    7.430592e+03
  3.326469e+01    7.403966e+03
  3.335624e+01    7.408204e+03
  3.344778e+01    7.489558e+03
  3.353932e+01    7.910467e+03
  3.363086e+01    1.171255e+04
  3.372240e+01    1.787896e+04
  3.381394e+01    9.321256e+03
  3.390549e+01    7.499248e+03
  3.399703e+01    7.187567e+03
  3.408857e+01    7.066798e+03
  3.418011e+01    6.994469e+03
  3.427165e+01    6.936612e+03
  3.436319e+01    6.888151e+03
  3.445473e+01    6.846945e+03
  3.454628e+01    6.801122e+03
  3.463782e+01    6.758093e+03
  3.472936e+01    6.723947e+03
  3.482090e+01    6.687689e+03
  3.491244e+01    6.651913e+03
  3.500398e+01    6.614319e+03
  3.509552e+01    6.585646e+03
  3.518707e+01    6.566466e+03
  3.527861e+01    6.535097e+03
  3.537015e+01    6.493545e+03
  3.546169e+01    6.464085e+03
  3.555323e+01    6.435907e+03
  3.564477e+01    6.407232e+03
  3.573631e+01    6.392627e+03
  3.582786e+01    6.388457e+03
  3.591940e+01    6.404220e+03
  3.601094e+01    6.441715e+03
  3.610248e+01    6.562650e+03
  3.619402e+01    7.553596e+03
  3.628556e+01    1.077851e+04
  3.637710e+01    7.710272e+03
  3.646865e+01    6.638194e+03
  3.656019e+01    6.527487e+03
  3.665173e+01    6.508161e+03
  3.674327e+01    6.520155e+03
  3.683481e+01    6.562907e+03
  3.692635e+01    6.615627e+03
  3.701790e+01    6.700974e+03
  3.710944e+01    6.838342e+03
  3.720098e+01    7.141346e+03
  3.729252e+01    7.914344e+03
  3.738406e+01    1.204656e+04
  3.747560e+01    4.523473e+04
  3.756714e+01    4.299609e+04
  3.765869e+01    1.174019e+04
  3.775023e+01    7.944558e+03
  3.784177e+01    7.189712e+03
  3.793331e+01    6.925378e+03
  3.802485e+01    6.764972e+03
  3.811639e+01    6.692651e+03
  3.820793e+01    6.640564e+03
  3.829948e+01    6.610295e+03
  3.839102e+01    6.598162e+03
  3.848256e+01    6.610904e+03
  3.857410e+01    6.743429e+03
  3.866564e+01    7.839771e+03
  3.875718e+01    8.066728e+03
  3.884872e+01    6.762753e+03
  3.894027e+01    6.582870e+03
  3.903181e+01    6.530741e+03
  3.912335e+01    6.520581e+03
  3.921489e+01    6.496320e+03
  3.930643e+01    6.485905e+03
  3.939797e+01    6.459023e+03
  3.948951e+01    6.420833e+03
  3.958106e+01    6.400225e+03
  3.967260e+01    6.385551e+03
  3.976414e+01    6.415994e+03
  3.985568e+01    6.782979e+03
  3.994722e+01    6.588544e+03
  4.003876e+01    6.340444e+03
  4.013031e+01    6.304689e+03
  4.022185e+01    6.286099e+03
  4.031339e+01    6.264724e+03
  4.040493e+01    6.253080e+03
  4.049647e+01    6.245124e+03
  4.058801e+01    6.239125e+03
  4.067955e+01    6.250880e+03
  4.077110e+01    6.306673e+03
  4.086264e+01    6.555297e+03
  4.095418e+01    8.887548e+03
  4.104572e+01    1.123175e+04
  4.113726e+01    7.053146e+03
  4.122880e+01    6.334135e+03
  4.132034e+01    6.221884e+03
  4.141189e+01    6.182695e+03
  4.150343e+01    6.157069e+03
  4.159497e+01    6.156997e+03
  4.168651e+01    6.153604e+03
  4.177805e+01    6.124509e+03
  4.186959e+01    6.126374e+03
  4.196113e+01    6.170544e+03
  4.205268e+01    6.532651e+03
  4.214422e+01    7.253277e+03
  4.223576e+01    6.348175e+03
  4.232730e+01    6.138491e+03
  4.241884e+01    6.105862e+03
  4.251038e+01    6.095613e+03
  4.260192e+01    6.086030e+03
  4.269347e+01    6.092618e+03
  4.278501e+01    6.114746e+03
  4.287655e+01    6.141561e+03
  4.296809e+01    6.213451e+03
  4.305963e+01    6.422307e+03
  4.315117e+01    8.304970e+03
  4.324272e+01    1.054929e+04
  4.333426e+01    7.184800e+03
  4.342580e+01    7.138040e+03
  4.351734e+01    1.231802e+04
  4.360888e+01    2.508738e+04
  4.370042e+01    9.704187e+03
  4.379196e+01    6.745006e+03
  4.388351e+01    6.395945e+03
  4.397505e+01    6.370146e+03
  4.406659e+01    6.642807e+03
  4.415813e+01    8.428837e+03
  4.424967e+01    2.205378e+04
  4.434121e+01    1.844159e+04
  4.443275e+01    7.740288e+03
  4.452430e+01    6.474982e+03
  4.461584e+01    6.195961e+03
  4.470738e+01    6.069051e+03
  4.479892e+01    6.013482e+03
  4.489046e+01    5.978892e+03
  4.498200e+01    5.994285e+03
  4.507354e+01    6.030450e+03
  4.516509e+01    6.236199e+03
  4.525663e+01    8.158368e+03
  4.534817e+01    1.114657e+04
  4.543971e+01    6.953186e+03
  4.553125e+01    6.046427e+03
  4.562279e+01    5.896304e+03
  4.571433e+01    5.858195e+03
  4.580588e+01    5.811245e+03
  4.589742e+01    5.790813e+03
  4.598896e+01    5.779344e+03
  4.608050e+01    5.767303e+03
  4.617204e+01    5.807313e+03
  4.626358e+01    6.210829e+03
  4.635513e+01    7.486561e+03
  4.644667e+01    6.264111e+03
  4.653821e+01    5.841234e+03
  4.662975e+01    5.770617e+03
  4.672129e+01    5.772100e+03
  4.681283e+01    5.804810e+03
  4.690437e+01    5.808876e+03
  4.699592e+01    5.860332e+03
  4.708746e+01    5.916263e+03
  4.717900e+01    5.996409e+03
  4.727054e+01    6.327992e+03
  4.736208e+01    7.243185e+03
  4.745362e+01    6.554713e+03
  4.754516e+01    6.496305e+03
  4.763671e+01    6.642700e+03
  4.772825e+01    6.519625e+03
  4.781979e+01    6.195708e+03
  4.788844e+01    2.499589e+03