File: Output/ROCK_XRD/WAM39B_integrated/rampe1/wam39b_rampe_1_xrd_000030_integrated.dat
# == pyFAI calibration ==
# Distance Sample to Detector: 0.261615 m
# PONI: 2.023e-01, 2.348e-01 m
# Rotations: -0.026380 0.002005 0.000000 rad
#
# == Fit2d calibration ==
# Distance Sample-beamCenter: 261.707 mm
# Center: x=6119.331, y=5134.776 pix
# Tilt: 1.516 deg  TiltPlanRot: 4.347 deg
#
# Detector Rayonix SX165	 PixelSize= 3.950e-05, 3.950e-05 m
#    Detector has a mask: True
#    Detector has a dark current: False
#    detector has a flat field: False
#
# Wavelength: 1.12713e-10 m
# Mask applied: from detector
# Dark current applied: False
# Flat field applied: False
# Polarization factor: None
# Normalization factor: 1.0
# --> ROCK\\WAM39B_integrated\wam39b_rampe_1_xrd_000030_integrated.dat
#       2th_deg             I
  2.502596e+01    4.101721e+03
  2.511750e+01    1.685640e+04
  2.520905e+01    1.711483e+04
  2.530059e+01    1.719812e+04
  2.539213e+01    1.669663e+04
  2.548367e+01    1.659281e+04
  2.557521e+01    1.650773e+04
  2.566675e+01    1.646189e+04
  2.575829e+01    1.629496e+04
  2.584984e+01    1.619913e+04
  2.594138e+01    1.635399e+04
  2.603292e+01    1.693237e+04
  2.612446e+01    1.894064e+04
  2.621600e+01    2.926946e+04
  2.630754e+01    5.371371e+04
  2.639908e+01    2.723847e+04
  2.649063e+01    1.795942e+04
  2.658217e+01    1.598435e+04
  2.667371e+01    1.529521e+04
  2.676525e+01    1.492389e+04
  2.685679e+01    1.467121e+04
  2.694833e+01    1.445528e+04
  2.703988e+01    1.426894e+04
  2.713142e+01    1.412641e+04
  2.722296e+01    1.393914e+04
  2.731450e+01    1.379071e+04
  2.740604e+01    1.362837e+04
  2.749758e+01    1.353112e+04
  2.758912e+01    1.346724e+04
  2.768067e+01    1.344822e+04
  2.777221e+01    1.368404e+04
  2.786375e+01    1.565517e+04
  2.795529e+01    1.668549e+04
  2.804683e+01    1.362207e+04
  2.813837e+01    1.284231e+04
  2.822991e+01    1.252262e+04
  2.832146e+01    1.235554e+04
  2.841300e+01    1.218161e+04
  2.850454e+01    1.203713e+04
  2.859608e+01    1.188131e+04
  2.868762e+01    1.172217e+04
  2.877916e+01    1.156649e+04
  2.887070e+01    1.140225e+04
  2.896225e+01    1.123721e+04
  2.905379e+01    1.108116e+04
  2.914533e+01    1.093684e+04
  2.923687e+01    1.084474e+04
  2.932841e+01    1.085863e+04
  2.941995e+01    1.160101e+04
  2.951149e+01    1.159129e+04
  2.960304e+01    1.048395e+04
  2.969458e+01    1.019517e+04
  2.978612e+01    1.006783e+04
  2.987766e+01    1.000638e+04
  2.996920e+01    1.000185e+04
  3.006074e+01    1.007571e+04
  3.015228e+01    1.026581e+04
  3.024383e+01    1.092216e+04
  3.033537e+01    1.431112e+04
  3.042691e+01    3.681221e+04
  3.051845e+01    4.524009e+04
  3.060999e+01    1.559279e+04
  3.070153e+01    1.137758e+04
  3.079308e+01    1.152855e+04
  3.088462e+01    1.860717e+04
  3.097616e+01    2.251938e+04
  3.106770e+01    1.179429e+04
  3.115924e+01    9.669882e+03
  3.125078e+01    9.205729e+03
  3.134232e+01    8.996666e+03
  3.143387e+01    8.871812e+03
  3.152541e+01    8.767676e+03
  3.161695e+01    8.680843e+03
  3.170849e+01    8.606029e+03
  3.180003e+01    8.538463e+03
  3.189157e+01    8.475604e+03
  3.198311e+01    8.423478e+03
  3.207466e+01    8.381129e+03
  3.216620e+01    8.364296e+03
  3.225774e+01    8.620362e+03
  3.234928e+01    9.563236e+03
  3.244082e+01    8.668459e+03
  3.253236e+01    8.185171e+03
  3.262390e+01    8.072758e+03
  3.271545e+01    8.010078e+03
  3.280699e+01    7.955331e+03
  3.289853e+01    7.913495e+03
  3.299007e+01    7.868186e+03
  3.308161e+01    7.838515e+03
  3.317315e+01    7.793955e+03
  3.326469e+01    7.774540e+03
  3.335624e+01    7.793622e+03
  3.344778e+01    7.876095e+03
  3.353932e+01    8.286675e+03
  3.363086e+01    1.144474e+04
  3.372240e+01    1.863253e+04
  3.381394e+01    1.070587e+04
  3.390549e+01    8.047809e+03
  3.399703e+01    7.605024e+03
  3.408857e+01    7.446892e+03
  3.418011e+01    7.357110e+03
  3.427165e+01    7.297168e+03
  3.436319e+01    7.249014e+03
  3.445473e+01    7.202122e+03
  3.454628e+01    7.150343e+03
  3.463782e+01    7.104000e+03
  3.472936e+01    7.072396e+03
  3.482090e+01    7.024000e+03
  3.491244e+01    6.992916e+03
  3.500398e+01    6.952851e+03
  3.509552e+01    6.926562e+03
  3.518707e+01    6.894469e+03
  3.527861e+01    6.862183e+03
  3.537015e+01    6.825662e+03
  3.546169e+01    6.795165e+03
  3.555323e+01    6.766550e+03
  3.564477e+01    6.742019e+03
  3.573631e+01    6.734480e+03
  3.582786e+01    6.733156e+03
  3.591940e+01    6.742643e+03
  3.601094e+01    6.780929e+03
  3.610248e+01    6.909779e+03
  3.619402e+01    7.731390e+03
  3.628556e+01    1.093208e+04
  3.637710e+01    8.604484e+03
  3.646865e+01    7.076184e+03
  3.656019e+01    6.901458e+03
  3.665173e+01    6.862288e+03
  3.674327e+01    6.877835e+03
  3.683481e+01    6.907210e+03
  3.692635e+01    6.969257e+03
  3.701790e+01    7.068051e+03
  3.710944e+01    7.230736e+03
  3.720098e+01    7.562620e+03
  3.729252e+01    8.378129e+03
  3.738406e+01    1.210647e+04
  3.747560e+01    3.943407e+04
  3.756714e+01    5.075621e+04
  3.765869e+01    1.491161e+04
  3.775023e+01    8.873091e+03
  3.784177e+01    7.766527e+03
  3.793331e+01    7.383868e+03
  3.802485e+01    7.175587e+03
  3.811639e+01    7.074012e+03
  3.820793e+01    7.009669e+03
  3.829948e+01    6.971985e+03
  3.839102e+01    6.950200e+03
  3.848256e+01    6.962757e+03
  3.857410e+01    7.072398e+03
  3.866564e+01    7.958465e+03
  3.875718e+01    8.650006e+03
  3.884872e+01    7.227043e+03
  3.894027e+01    6.948270e+03
  3.903181e+01    6.880400e+03
  3.912335e+01    6.853467e+03
  3.921489e+01    6.830738e+03
  3.930643e+01    6.820584e+03
  3.939797e+01    6.795139e+03
  3.948951e+01    6.759989e+03
  3.958106e+01    6.728396e+03
  3.967260e+01    6.711777e+03
  3.976414e+01    6.732712e+03
  3.985568e+01    7.040902e+03
  3.994722e+01    6.983927e+03
  4.003876e+01    6.673609e+03
  4.013031e+01    6.626267e+03
  4.022185e+01    6.592135e+03
  4.031339e+01    6.584570e+03
  4.040493e+01    6.569913e+03
  4.049647e+01    6.562565e+03
  4.058801e+01    6.555367e+03
  4.067955e+01    6.572898e+03
  4.077110e+01    6.628778e+03
  4.086264e+01    6.856837e+03
  4.095418e+01    8.686996e+03
  4.104572e+01    1.194228e+04
  4.113726e+01    7.897992e+03
  4.122880e+01    6.732121e+03
  4.132034e+01    6.553014e+03
  4.141189e+01    6.491210e+03
  4.150343e+01    6.477979e+03
  4.159497e+01    6.465326e+03
  4.168651e+01    6.469909e+03
  4.177805e+01    6.454440e+03
  4.186959e+01    6.443534e+03
  4.196113e+01    6.477810e+03
  4.205268e+01    6.757152e+03
  4.214422e+01    7.580238e+03
  4.223576e+01    6.802436e+03
  4.232730e+01    6.467111e+03
  4.241884e+01    6.426184e+03
  4.251038e+01    6.407707e+03
  4.260192e+01    6.401660e+03
  4.269347e+01    6.406178e+03
  4.278501e+01    6.425597e+03
  4.287655e+01    6.462240e+03
  4.296809e+01    6.555862e+03
  4.305963e+01    6.751418e+03
  4.315117e+01    8.199608e+03
  4.324272e+01    1.118225e+04
  4.333426e+01    8.027771e+03
  4.342580e+01    7.472435e+03
  4.351734e+01    1.036173e+04
  4.360888e+01    2.375402e+04
  4.370042e+01    1.325279e+04
  4.379196e+01    7.634654e+03
  4.388351e+01    6.882755e+03
  4.397505e+01    6.786159e+03
  4.406659e+01    7.021469e+03
  4.415813e+01    8.533822e+03
  4.424967e+01    1.950967e+04
  4.434121e+01    2.204150e+04
  4.443275e+01    9.118660e+03
  4.452430e+01    7.012434e+03
  4.461584e+01    6.583824e+03
  4.470738e+01    6.412026e+03
  4.479892e+01    6.342815e+03
  4.489046e+01    6.314507e+03
  4.498200e+01    6.318833e+03
  4.507354e+01    6.343827e+03
  4.516509e+01    6.544162e+03
  4.525663e+01    7.987999e+03
  4.534817e+01    1.163538e+04
  4.543971e+01    7.916253e+03
  4.553125e+01    6.464483e+03
  4.562279e+01    6.240045e+03
  4.571433e+01    6.155328e+03
  4.580588e+01    6.122085e+03
  4.589742e+01    6.095190e+03
  4.598896e+01    6.066435e+03
  4.608050e+01    6.043174e+03
  4.617204e+01    6.093015e+03
  4.626358e+01    6.396840e+03
  4.635513e+01    7.686834e+03
  4.644667e+01    6.845629e+03
  4.653821e+01    6.167652e+03
  4.662975e+01    6.075790e+03
  4.672129e+01    6.056149e+03
  4.681283e+01    6.084277e+03
  4.690437e+01    6.101517e+03
  4.699592e+01    6.139100e+03
  4.708746e+01    6.206425e+03
  4.717900e+01    6.284663e+03
  4.727054e+01    6.558822e+03
  4.736208e+01    7.473776e+03
  4.745362e+01    7.039291e+03
  4.754516e+01    6.828181e+03
  4.763671e+01    6.963298e+03
  4.772825e+01    6.814782e+03
  4.781979e+01    6.487609e+03
  4.788844e+01    2.605653e+03