File: Output/ROCK_XRD/WAM39B_integrated/rampe1/wam39b_rampe_1_xrd_000039_integrated.dat
# == pyFAI calibration ==
# Distance Sample to Detector: 0.261615 m
# PONI: 2.023e-01, 2.348e-01 m
# Rotations: -0.026380 0.002005 0.000000 rad
#
# == Fit2d calibration ==
# Distance Sample-beamCenter: 261.707 mm
# Center: x=6119.331, y=5134.776 pix
# Tilt: 1.516 deg  TiltPlanRot: 4.347 deg
#
# Detector Rayonix SX165	 PixelSize= 3.950e-05, 3.950e-05 m
#    Detector has a mask: True
#    Detector has a dark current: False
#    detector has a flat field: False
#
# Wavelength: 1.12713e-10 m
# Mask applied: from detector
# Dark current applied: False
# Flat field applied: False
# Polarization factor: None
# Normalization factor: 1.0
# --> ROCK\\WAM39B_integrated\wam39b_rampe_1_xrd_000039_integrated.dat
#       2th_deg             I
  2.502596e+01    4.458055e+03
  2.511750e+01    1.824670e+04
  2.520905e+01    1.852560e+04
  2.530059e+01    1.861978e+04
  2.539213e+01    1.808406e+04
  2.548367e+01    1.795855e+04
  2.557521e+01    1.782977e+04
  2.566675e+01    1.776277e+04
  2.575829e+01    1.757605e+04
  2.584984e+01    1.743471e+04
  2.594138e+01    1.753811e+04
  2.603292e+01    1.801847e+04
  2.612446e+01    1.965643e+04
  2.621600e+01    2.915438e+04
  2.630754e+01    5.813860e+04
  2.639908e+01    3.021856e+04
  2.649063e+01    1.919639e+04
  2.658217e+01    1.713054e+04
  2.667371e+01    1.647628e+04
  2.676525e+01    1.609194e+04
  2.685679e+01    1.582127e+04
  2.694833e+01    1.559570e+04
  2.703988e+01    1.541754e+04
  2.713142e+01    1.526517e+04
  2.722296e+01    1.506144e+04
  2.731450e+01    1.490549e+04
  2.740604e+01    1.473119e+04
  2.749758e+01    1.461896e+04
  2.758912e+01    1.452855e+04
  2.768067e+01    1.447112e+04
  2.777221e+01    1.462675e+04
  2.786375e+01    1.638236e+04
  2.795529e+01    1.850085e+04
  2.804683e+01    1.479873e+04
  2.813837e+01    1.385817e+04
  2.822991e+01    1.352507e+04
  2.832146e+01    1.332157e+04
  2.841300e+01    1.313337e+04
  2.850454e+01    1.296213e+04
  2.859608e+01    1.282465e+04
  2.868762e+01    1.264204e+04
  2.877916e+01    1.244994e+04
  2.887070e+01    1.228482e+04
  2.896225e+01    1.211161e+04
  2.905379e+01    1.192713e+04
  2.914533e+01    1.176346e+04
  2.923687e+01    1.164431e+04
  2.932841e+01    1.160415e+04
  2.941995e+01    1.226755e+04
  2.951149e+01    1.266209e+04
  2.960304e+01    1.127501e+04
  2.969458e+01    1.094067e+04
  2.978612e+01    1.078578e+04
  2.987766e+01    1.068984e+04
  2.996920e+01    1.066577e+04
  3.006074e+01    1.071386e+04
  3.015228e+01    1.084997e+04
  3.024383e+01    1.134484e+04
  3.033537e+01    1.409458e+04
  3.042691e+01    3.679833e+04
  3.051845e+01    5.260628e+04
  3.060999e+01    1.646139e+04
  3.070153e+01    1.175779e+04
  3.079308e+01    1.166662e+04
  3.088462e+01    1.775646e+04
  3.097616e+01    2.605232e+04
  3.106770e+01    1.297068e+04
  3.115924e+01    1.033434e+04
  3.125078e+01    9.823504e+03
  3.134232e+01    9.620643e+03
  3.143387e+01    9.500786e+03
  3.152541e+01    9.384615e+03
  3.161695e+01    9.284479e+03
  3.170849e+01    9.209001e+03
  3.180003e+01    9.137472e+03
  3.189157e+01    9.077309e+03
  3.198311e+01    9.016289e+03
  3.207466e+01    8.970292e+03
  3.216620e+01    8.946716e+03
  3.225774e+01    9.103667e+03
  3.234928e+01    1.022291e+04
  3.244082e+01    9.420863e+03
  3.253236e+01    8.772744e+03
  3.262390e+01    8.641397e+03
  3.271545e+01    8.569156e+03
  3.280699e+01    8.521024e+03
  3.289853e+01    8.464848e+03
  3.299007e+01    8.408197e+03
  3.308161e+01    8.373854e+03
  3.317315e+01    8.331176e+03
  3.326469e+01    8.306010e+03
  3.335624e+01    8.303163e+03
  3.344778e+01    8.356283e+03
  3.353932e+01    8.626380e+03
  3.363086e+01    1.096334e+04
  3.372240e+01    2.046028e+04
  3.381394e+01    1.221697e+04
  3.390549e+01    8.608947e+03
  3.399703e+01    8.114589e+03
  3.408857e+01    7.950688e+03
  3.418011e+01    7.859423e+03
  3.427165e+01    7.786275e+03
  3.436319e+01    7.732738e+03
  3.445473e+01    7.676989e+03
  3.454628e+01    7.627920e+03
  3.463782e+01    7.578792e+03
  3.472936e+01    7.538611e+03
  3.482090e+01    7.489721e+03
  3.491244e+01    7.454187e+03
  3.500398e+01    7.417117e+03
  3.509552e+01    7.386853e+03
  3.518707e+01    7.360981e+03
  3.527861e+01    7.324145e+03
  3.537015e+01    7.282087e+03
  3.546169e+01    7.247154e+03
  3.555323e+01    7.220250e+03
  3.564477e+01    7.181100e+03
  3.573631e+01    7.157606e+03
  3.582786e+01    7.162723e+03
  3.591940e+01    7.168964e+03
  3.601094e+01    7.201610e+03
  3.610248e+01    7.287785e+03
  3.619402e+01    7.853039e+03
  3.628556e+01    1.141835e+04
  3.637710e+01    9.714549e+03
  3.646865e+01    7.550221e+03
  3.656019e+01    7.326438e+03
  3.665173e+01    7.290840e+03
  3.674327e+01    7.303774e+03
  3.683481e+01    7.326907e+03
  3.692635e+01    7.375984e+03
  3.701790e+01    7.464998e+03
  3.710944e+01    7.596147e+03
  3.720098e+01    7.859590e+03
  3.729252e+01    8.459097e+03
  3.738406e+01    1.090259e+04
  3.747560e+01    3.309158e+04
  3.756714e+01    6.251100e+04
  3.765869e+01    1.759610e+04
  3.775023e+01    9.430359e+03
  3.784177e+01    8.201216e+03
  3.793331e+01    7.809721e+03
  3.802485e+01    7.605586e+03
  3.811639e+01    7.517524e+03
  3.820793e+01    7.442379e+03
  3.829948e+01    7.415958e+03
  3.839102e+01    7.390857e+03
  3.848256e+01    7.397675e+03
  3.857410e+01    7.465944e+03
  3.866564e+01    8.140976e+03
  3.875718e+01    9.493900e+03
  3.884872e+01    7.787732e+03
  3.894027e+01    7.400165e+03
  3.903181e+01    7.336472e+03
  3.912335e+01    7.308487e+03
  3.921489e+01    7.278034e+03
  3.930643e+01    7.266660e+03
  3.939797e+01    7.240088e+03
  3.948951e+01    7.201937e+03
  3.958106e+01    7.169311e+03
  3.967260e+01    7.153178e+03
  3.976414e+01    7.146264e+03
  3.985568e+01    7.429726e+03
  3.994722e+01    7.545101e+03
  4.003876e+01    7.124921e+03
  4.013031e+01    7.067353e+03
  4.022185e+01    7.040469e+03
  4.031339e+01    7.021511e+03
  4.040493e+01    7.004034e+03
  4.049647e+01    6.994693e+03
  4.058801e+01    6.977316e+03
  4.067955e+01    6.984884e+03
  4.077110e+01    7.020856e+03
  4.086264e+01    7.174650e+03
  4.095418e+01    8.411911e+03
  4.104572e+01    1.316238e+04
  4.113726e+01    8.896597e+03
  4.122880e+01    7.189289e+03
  4.132034e+01    6.976499e+03
  4.141189e+01    6.918571e+03
  4.150343e+01    6.895509e+03
  4.159497e+01    6.879923e+03
  4.168651e+01    6.886782e+03
  4.177805e+01    6.868896e+03
  4.186959e+01    6.855995e+03
  4.196113e+01    6.873480e+03
  4.205268e+01    7.053145e+03
  4.214422e+01    8.062234e+03
  4.223576e+01    7.391000e+03
  4.232730e+01    6.896387e+03
  4.241884e+01    6.837178e+03
  4.251038e+01    6.821922e+03
  4.260192e+01    6.808037e+03
  4.269347e+01    6.810186e+03
  4.278501e+01    6.819881e+03
  4.287655e+01    6.842660e+03
  4.296809e+01    6.925124e+03
  4.305963e+01    7.052264e+03
  4.315117e+01    7.990968e+03
  4.324272e+01    1.208425e+04
  4.333426e+01    8.917184e+03
  4.342580e+01    7.689958e+03
  4.351734e+01    9.843789e+03
  4.360888e+01    2.636494e+04
  4.370042e+01    1.525365e+04
  4.379196e+01    7.956383e+03
  4.388351e+01    7.189257e+03
  4.397505e+01    7.094966e+03
  4.406659e+01    7.243569e+03
  4.415813e+01    8.144389e+03
  4.424967e+01    1.672575e+04
  4.434121e+01    2.706642e+04
  4.443275e+01    1.051025e+04
  4.452430e+01    7.481201e+03
  4.461584e+01    7.000744e+03
  4.470738e+01    6.809641e+03
  4.479892e+01    6.736413e+03
  4.489046e+01    6.692747e+03
  4.498200e+01    6.693983e+03
  4.507354e+01    6.708625e+03
  4.516509e+01    6.834199e+03
  4.525663e+01    7.734083e+03
  4.534817e+01    1.246273e+04
  4.543971e+01    9.164646e+03
  4.553125e+01    6.924100e+03
  4.562279e+01    6.629838e+03
  4.571433e+01    6.552117e+03
  4.580588e+01    6.507067e+03
  4.589742e+01    6.480662e+03
  4.598896e+01    6.458102e+03
  4.608050e+01    6.436871e+03
  4.617204e+01    6.458824e+03
  4.626358e+01    6.654029e+03
  4.635513e+01    7.994033e+03
  4.644667e+01    7.597800e+03
  4.653821e+01    6.594233e+03
  4.662975e+01    6.484046e+03
  4.672129e+01    6.453225e+03
  4.681283e+01    6.482926e+03
  4.690437e+01    6.501408e+03
  4.699592e+01    6.547660e+03
  4.708746e+01    6.604060e+03
  4.717900e+01    6.669873e+03
  4.727054e+01    6.882420e+03
  4.736208e+01    7.842596e+03
  4.745362e+01    7.758625e+03
  4.754516e+01    7.284127e+03
  4.763671e+01    7.456830e+03
  4.772825e+01    7.305344e+03
  4.781979e+01    6.938611e+03
  4.788844e+01    2.784586e+03