File: Output/ROCK_XRD/WAM39B_integrated/rampe1/wam39b_rampe_1_xrd_000024_integrated.dat
# == pyFAI calibration ==
# Distance Sample to Detector: 0.261615 m
# PONI: 2.023e-01, 2.348e-01 m
# Rotations: -0.026380 0.002005 0.000000 rad
#
# == Fit2d calibration ==
# Distance Sample-beamCenter: 261.707 mm
# Center: x=6119.331, y=5134.776 pix
# Tilt: 1.516 deg  TiltPlanRot: 4.347 deg
#
# Detector Rayonix SX165	 PixelSize= 3.950e-05, 3.950e-05 m
#    Detector has a mask: True
#    Detector has a dark current: False
#    detector has a flat field: False
#
# Wavelength: 1.12713e-10 m
# Mask applied: from detector
# Dark current applied: False
# Flat field applied: False
# Polarization factor: None
# Normalization factor: 1.0
# --> ROCK\\WAM39B_integrated\wam39b_rampe_1_xrd_000024_integrated.dat
#       2th_deg             I
  2.502596e+01    4.551372e+03
  2.511750e+01    1.864299e+04
  2.520905e+01    1.891359e+04
  2.530059e+01    1.905078e+04
  2.539213e+01    1.867794e+04
  2.548367e+01    1.906609e+04
  2.557521e+01    1.991156e+04
  2.566675e+01    2.047486e+04
  2.575829e+01    2.046698e+04
  2.584984e+01    1.888552e+04
  2.594138e+01    1.849738e+04
  2.603292e+01    1.891692e+04
  2.612446e+01    2.015927e+04
  2.621600e+01    2.356713e+04
  2.630754e+01    3.347120e+04
  2.639908e+01    3.749107e+04
  2.649063e+01    3.306870e+04
  2.658217e+01    2.438612e+04
  2.667371e+01    1.990231e+04
  2.676525e+01    1.782402e+04
  2.685679e+01    1.688809e+04
  2.694833e+01    1.634409e+04
  2.703988e+01    1.601711e+04
  2.713142e+01    1.576920e+04
  2.722296e+01    1.554777e+04
  2.731450e+01    1.539914e+04
  2.740604e+01    1.523755e+04
  2.749758e+01    1.518134e+04
  2.758912e+01    1.520814e+04
  2.768067e+01    1.541790e+04
  2.777221e+01    1.615560e+04
  2.786375e+01    1.891009e+04
  2.795529e+01    2.240219e+04
  2.804683e+01    1.777632e+04
  2.813837e+01    1.497102e+04
  2.822991e+01    1.418550e+04
  2.832146e+01    1.384059e+04
  2.841300e+01    1.358057e+04
  2.850454e+01    1.337996e+04
  2.859608e+01    1.322194e+04
  2.868762e+01    1.303697e+04
  2.877916e+01    1.284798e+04
  2.887070e+01    1.267278e+04
  2.896225e+01    1.249851e+04
  2.905379e+01    1.232568e+04
  2.914533e+01    1.216472e+04
  2.923687e+01    1.205688e+04
  2.932841e+01    1.199646e+04
  2.941995e+01    1.233210e+04
  2.951149e+01    1.336212e+04
  2.960304e+01    1.218071e+04
  2.969458e+01    1.148451e+04
  2.978612e+01    1.130221e+04
  2.987766e+01    1.120475e+04
  2.996920e+01    1.116989e+04
  3.006074e+01    1.120852e+04
  3.015228e+01    1.131736e+04
  3.024383e+01    1.155411e+04
  3.033537e+01    1.217162e+04
  3.042691e+01    1.395980e+04
  3.051845e+01    1.999196e+04
  3.060999e+01    3.270798e+04
  3.070153e+01    2.935370e+04
  3.079308e+01    1.880971e+04
  3.088462e+01    1.791942e+04
  3.097616e+01    2.811035e+04
  3.106770e+01    1.944408e+04
  3.115924e+01    1.229172e+04
  3.125078e+01    1.089100e+04
  3.134232e+01    1.041429e+04
  3.143387e+01    1.017688e+04
  3.152541e+01    9.997400e+03
  3.161695e+01    9.865146e+03
  3.170849e+01    9.772961e+03
  3.180003e+01    9.698229e+03
  3.189157e+01    9.663269e+03
  3.198311e+01    9.651600e+03
  3.207466e+01    9.708490e+03
  3.216620e+01    9.771660e+03
  3.225774e+01    9.756734e+03
  3.234928e+01    1.033679e+04
  3.244082e+01    1.060357e+04
  3.253236e+01    9.486299e+03
  3.262390e+01    9.176745e+03
  3.271545e+01    9.078765e+03
  3.280699e+01    8.991554e+03
  3.289853e+01    8.946488e+03
  3.299007e+01    8.890848e+03
  3.308161e+01    8.854911e+03
  3.317315e+01    8.834676e+03
  3.326469e+01    8.843544e+03
  3.335624e+01    8.835683e+03
  3.344778e+01    8.871558e+03
  3.353932e+01    9.111986e+03
  3.363086e+01    1.038145e+04
  3.372240e+01    1.753438e+04
  3.381394e+01    1.821658e+04
  3.390549e+01    1.048790e+04
  3.399703e+01    8.971805e+03
  3.408857e+01    8.667014e+03
  3.418011e+01    8.588093e+03
  3.427165e+01    8.468305e+03
  3.436319e+01    8.326960e+03
  3.445473e+01    8.225658e+03
  3.454628e+01    8.180753e+03
  3.463782e+01    8.157396e+03
  3.472936e+01    8.224997e+03
  3.482090e+01    8.446408e+03
  3.491244e+01    8.740115e+03
  3.500398e+01    8.359467e+03
  3.509552e+01    8.028703e+03
  3.518707e+01    7.894045e+03
  3.527861e+01    7.832192e+03
  3.537015e+01    7.788804e+03
  3.546169e+01    7.739539e+03
  3.555323e+01    7.703406e+03
  3.564477e+01    7.671638e+03
  3.573631e+01    7.657676e+03
  3.582786e+01    7.655649e+03
  3.591940e+01    7.660661e+03
  3.601094e+01    7.708989e+03
  3.610248e+01    7.795640e+03
  3.619402e+01    8.133168e+03
  3.628556e+01    1.013354e+04
  3.637710e+01    1.226359e+04
  3.646865e+01    8.908778e+03
  3.656019e+01    8.015449e+03
  3.665173e+01    7.882462e+03
  3.674327e+01    7.875922e+03
  3.683481e+01    7.889614e+03
  3.692635e+01    7.933514e+03
  3.701790e+01    8.039902e+03
  3.710944e+01    8.227347e+03
  3.720098e+01    8.522917e+03
  3.729252e+01    9.118759e+03
  3.738406e+01    1.097035e+04
  3.747560e+01    2.099518e+04
  3.756714e+01    6.206976e+04
  3.765869e+01    4.089629e+04
  3.775023e+01    1.421412e+04
  3.784177e+01    9.924242e+03
  3.793331e+01    8.838807e+03
  3.802485e+01    8.388760e+03
  3.811639e+01    8.184034e+03
  3.820793e+01    8.071968e+03
  3.829948e+01    8.037001e+03
  3.839102e+01    8.106076e+03
  3.848256e+01    8.105547e+03
  3.857410e+01    8.058663e+03
  3.866564e+01    8.281235e+03
  3.875718e+01    9.730910e+03
  3.884872e+01    9.260096e+03
  3.894027e+01    8.072415e+03
  3.903181e+01    7.854590e+03
  3.912335e+01    7.795975e+03
  3.921489e+01    7.761990e+03
  3.930643e+01    7.728758e+03
  3.939797e+01    7.722919e+03
  3.948951e+01    7.717819e+03
  3.958106e+01    7.755510e+03
  3.967260e+01    7.766264e+03
  3.976414e+01    7.712162e+03
  3.985568e+01    7.760307e+03
  3.994722e+01    8.123217e+03
  4.003876e+01    7.806525e+03
  4.013031e+01    7.614835e+03
  4.022185e+01    7.639195e+03
  4.031339e+01    7.752923e+03
  4.040493e+01    7.727385e+03
  4.049647e+01    7.574249e+03
  4.058801e+01    7.497620e+03
  4.067955e+01    7.488637e+03
  4.077110e+01    7.514865e+03
  4.086264e+01    7.637540e+03
  4.095418e+01    8.217593e+03
  4.104572e+01    1.159935e+04
  4.113726e+01    1.264683e+04
  4.122880e+01    8.730589e+03
  4.132034e+01    7.972809e+03
  4.141189e+01    7.610118e+03
  4.150343e+01    7.457051e+03
  4.159497e+01    7.395854e+03
  4.168651e+01    7.394387e+03
  4.177805e+01    7.382491e+03
  4.186959e+01    7.417317e+03
  4.196113e+01    7.512782e+03
  4.205268e+01    7.761078e+03
  4.214422e+01    8.510354e+03
  4.223576e+01    8.997076e+03
  4.232730e+01    7.838248e+03
  4.241884e+01    7.445344e+03
  4.251038e+01    7.336173e+03
  4.260192e+01    7.294336e+03
  4.269347e+01    7.279588e+03
  4.278501e+01    7.287536e+03
  4.287655e+01    7.299697e+03
  4.296809e+01    7.362188e+03
  4.305963e+01    7.472923e+03
  4.315117e+01    7.934224e+03
  4.324272e+01    1.055392e+04
  4.333426e+01    1.212107e+04
  4.342580e+01    8.687927e+03
  4.351734e+01    8.063367e+03
  4.360888e+01    8.497823e+03
  4.370042e+01    1.038339e+04
  4.379196e+01    1.489794e+04
  4.388351e+01    1.690605e+04
  4.397505e+01    1.222861e+04
  4.406659e+01    9.572043e+03
  4.415813e+01    9.179236e+03
  4.424967e+01    1.210901e+04
  4.434121e+01    2.665594e+04
  4.443275e+01    2.132548e+04
  4.452430e+01    1.013162e+04
  4.461584e+01    8.191792e+03
  4.470738e+01    7.729741e+03
  4.479892e+01    7.501140e+03
  4.489046e+01    7.324838e+03
  4.498200e+01    7.259279e+03
  4.507354e+01    7.235966e+03
  4.516509e+01    7.317353e+03
  4.525663e+01    7.722596e+03
  4.534817e+01    1.029226e+04
  4.543971e+01    1.287011e+04
  4.553125e+01    8.653746e+03
  4.562279e+01    7.380228e+03
  4.571433e+01    7.166592e+03
  4.580588e+01    7.124537e+03
  4.589742e+01    7.172257e+03
  4.598896e+01    7.313384e+03
  4.608050e+01    7.458496e+03
  4.617204e+01    7.377465e+03
  4.626358e+01    7.236317e+03
  4.635513e+01    7.672785e+03
  4.644667e+01    8.877269e+03
  4.653821e+01    7.781905e+03
  4.662975e+01    7.417716e+03
  4.672129e+01    7.501745e+03
  4.681283e+01    7.271138e+03
  4.690437e+01    7.081185e+03
  4.699592e+01    7.049285e+03
  4.708746e+01    7.058675e+03
  4.717900e+01    7.103877e+03
  4.727054e+01    7.242282e+03
  4.736208e+01    7.672972e+03
  4.745362e+01    8.640073e+03
  4.754516e+01    8.128780e+03
  4.763671e+01    7.954020e+03
  4.772825e+01    7.780432e+03
  4.781979e+01    7.489333e+03
  4.788844e+01    3.040540e+03