File: Output/ROCK_XRD/WAM39B_integrated/rampe1/wam39b_rampe_1_xrd_000032_integrated.dat
# == pyFAI calibration ==
# Distance Sample to Detector: 0.261615 m
# PONI: 2.023e-01, 2.348e-01 m
# Rotations: -0.026380 0.002005 0.000000 rad
#
# == Fit2d calibration ==
# Distance Sample-beamCenter: 261.707 mm
# Center: x=6119.331, y=5134.776 pix
# Tilt: 1.516 deg  TiltPlanRot: 4.347 deg
#
# Detector Rayonix SX165	 PixelSize= 3.950e-05, 3.950e-05 m
#    Detector has a mask: True
#    Detector has a dark current: False
#    detector has a flat field: False
#
# Wavelength: 1.12713e-10 m
# Mask applied: from detector
# Dark current applied: False
# Flat field applied: False
# Polarization factor: None
# Normalization factor: 1.0
# --> ROCK\\WAM39B_integrated\wam39b_rampe_1_xrd_000032_integrated.dat
#       2th_deg             I
  2.502596e+01    4.618320e+03
  2.511750e+01    1.892903e+04
  2.520905e+01    1.921475e+04
  2.530059e+01    1.929290e+04
  2.539213e+01    1.875389e+04
  2.548367e+01    1.861545e+04
  2.557521e+01    1.851120e+04
  2.566675e+01    1.844841e+04
  2.575829e+01    1.825325e+04
  2.584984e+01    1.811822e+04
  2.594138e+01    1.824008e+04
  2.603292e+01    1.876003e+04
  2.612446e+01    2.054318e+04
  2.621600e+01    3.022248e+04
  2.630754e+01    5.869319e+04
  2.639908e+01    3.176872e+04
  2.649063e+01    2.017197e+04
  2.658217e+01    1.788296e+04
  2.667371e+01    1.711898e+04
  2.676525e+01    1.671353e+04
  2.685679e+01    1.643297e+04
  2.694833e+01    1.618958e+04
  2.703988e+01    1.598776e+04
  2.713142e+01    1.583972e+04
  2.722296e+01    1.561205e+04
  2.731450e+01    1.546163e+04
  2.740604e+01    1.527086e+04
  2.749758e+01    1.516481e+04
  2.758912e+01    1.506895e+04
  2.768067e+01    1.502667e+04
  2.777221e+01    1.518490e+04
  2.786375e+01    1.703152e+04
  2.795529e+01    1.909393e+04
  2.804683e+01    1.537826e+04
  2.813837e+01    1.438228e+04
  2.822991e+01    1.403052e+04
  2.832146e+01    1.384138e+04
  2.841300e+01    1.363738e+04
  2.850454e+01    1.346311e+04
  2.859608e+01    1.331067e+04
  2.868762e+01    1.311652e+04
  2.877916e+01    1.294128e+04
  2.887070e+01    1.275624e+04
  2.896225e+01    1.256711e+04
  2.905379e+01    1.239429e+04
  2.914533e+01    1.221793e+04
  2.923687e+01    1.210205e+04
  2.932841e+01    1.207015e+04
  2.941995e+01    1.275675e+04
  2.951149e+01    1.312481e+04
  2.960304e+01    1.174814e+04
  2.969458e+01    1.138398e+04
  2.978612e+01    1.122995e+04
  2.987766e+01    1.113327e+04
  2.996920e+01    1.112041e+04
  3.006074e+01    1.118261e+04
  3.015228e+01    1.134288e+04
  3.024383e+01    1.191450e+04
  3.033537e+01    1.489240e+04
  3.042691e+01    3.872711e+04
  3.051845e+01    5.420888e+04
  3.060999e+01    1.778648e+04
  3.070153e+01    1.251208e+04
  3.079308e+01    1.235215e+04
  3.088462e+01    1.866523e+04
  3.097616e+01    2.666989e+04
  3.106770e+01    1.370209e+04
  3.115924e+01    1.082398e+04
  3.125078e+01    1.025804e+04
  3.134232e+01    1.002061e+04
  3.143387e+01    9.886531e+03
  3.152541e+01    9.766148e+03
  3.161695e+01    9.672927e+03
  3.170849e+01    9.579521e+03
  3.180003e+01    9.507982e+03
  3.189157e+01    9.447948e+03
  3.198311e+01    9.389531e+03
  3.207466e+01    9.333354e+03
  3.216620e+01    9.307626e+03
  3.225774e+01    9.487622e+03
  3.234928e+01    1.058395e+04
  3.244082e+01    9.802114e+03
  3.253236e+01    9.134540e+03
  3.262390e+01    8.996065e+03
  3.271545e+01    8.918305e+03
  3.280699e+01    8.858125e+03
  3.289853e+01    8.806556e+03
  3.299007e+01    8.755007e+03
  3.308161e+01    8.711778e+03
  3.317315e+01    8.674279e+03
  3.326469e+01    8.649837e+03
  3.335624e+01    8.654262e+03
  3.344778e+01    8.721139e+03
  3.353932e+01    9.034064e+03
  3.363086e+01    1.157110e+04
  3.372240e+01    2.086483e+04
  3.381394e+01    1.283754e+04
  3.390549e+01    9.030081e+03
  3.399703e+01    8.469045e+03
  3.408857e+01    8.282114e+03
  3.418011e+01    8.187176e+03
  3.427165e+01    8.113602e+03
  3.436319e+01    8.054283e+03
  3.445473e+01    7.999211e+03
  3.454628e+01    7.946924e+03
  3.463782e+01    7.893803e+03
  3.472936e+01    7.854997e+03
  3.482090e+01    7.813212e+03
  3.491244e+01    7.768398e+03
  3.500398e+01    7.719858e+03
  3.509552e+01    7.695032e+03
  3.518707e+01    7.659416e+03
  3.527861e+01    7.619780e+03
  3.537015e+01    7.583998e+03
  3.546169e+01    7.548687e+03
  3.555323e+01    7.510165e+03
  3.564477e+01    7.484330e+03
  3.573631e+01    7.469324e+03
  3.582786e+01    7.458193e+03
  3.591940e+01    7.471930e+03
  3.601094e+01    7.507488e+03
  3.610248e+01    7.619480e+03
  3.619402e+01    8.241960e+03
  3.628556e+01    1.178861e+04
  3.637710e+01    1.011558e+04
  3.646865e+01    7.907011e+03
  3.656019e+01    7.653828e+03
  3.665173e+01    7.605459e+03
  3.674327e+01    7.609880e+03
  3.683481e+01    7.653476e+03
  3.692635e+01    7.710307e+03
  3.701790e+01    7.805647e+03
  3.710944e+01    7.950912e+03
  3.720098e+01    8.248872e+03
  3.729252e+01    8.945192e+03
  3.738406e+01    1.177594e+04
  3.747560e+01    3.506678e+04
  3.756714e+01    6.333277e+04
  3.765869e+01    1.898416e+04
  3.775023e+01    1.003528e+04
  3.784177e+01    8.635072e+03
  3.793331e+01    8.191027e+03
  3.802485e+01    7.950838e+03
  3.811639e+01    7.850857e+03
  3.820793e+01    7.770748e+03
  3.829948e+01    7.729513e+03
  3.839102e+01    7.697273e+03
  3.848256e+01    7.705947e+03
  3.857410e+01    7.797270e+03
  3.866564e+01    8.507308e+03
  3.875718e+01    9.813061e+03
  3.884872e+01    8.133353e+03
  3.894027e+01    7.714018e+03
  3.903181e+01    7.632312e+03
  3.912335e+01    7.605055e+03
  3.921489e+01    7.579832e+03
  3.930643e+01    7.561264e+03
  3.939797e+01    7.543390e+03
  3.948951e+01    7.491114e+03
  3.958106e+01    7.468893e+03
  3.967260e+01    7.440104e+03
  3.976414e+01    7.447105e+03
  3.985568e+01    7.719575e+03
  3.994722e+01    7.838549e+03
  4.003876e+01    7.424711e+03
  4.013031e+01    7.361961e+03
  4.022185e+01    7.327791e+03
  4.031339e+01    7.310323e+03
  4.040493e+01    7.297729e+03
  4.049647e+01    7.280109e+03
  4.058801e+01    7.271454e+03
  4.067955e+01    7.278076e+03
  4.077110e+01    7.324086e+03
  4.086264e+01    7.497553e+03
  4.095418e+01    8.859378e+03
  4.104572e+01    1.346489e+04
  4.113726e+01    9.310380e+03
  4.122880e+01    7.510764e+03
  4.132034e+01    7.271446e+03
  4.141189e+01    7.208368e+03
  4.150343e+01    7.169920e+03
  4.159497e+01    7.165258e+03
  4.168651e+01    7.164214e+03
  4.177805e+01    7.145837e+03
  4.186959e+01    7.138911e+03
  4.196113e+01    7.157355e+03
  4.205268e+01    7.355224e+03
  4.214422e+01    8.350115e+03
  4.223576e+01    7.708160e+03
  4.232730e+01    7.180426e+03
  4.241884e+01    7.113900e+03
  4.251038e+01    7.104003e+03
  4.260192e+01    7.094164e+03
  4.269347e+01    7.105039e+03
  4.278501e+01    7.113216e+03
  4.287655e+01    7.140917e+03
  4.296809e+01    7.224413e+03
  4.305963e+01    7.378455e+03
  4.315117e+01    8.420585e+03
  4.324272e+01    1.241936e+04
  4.333426e+01    9.359478e+03
  4.342580e+01    8.106889e+03
  4.351734e+01    1.042491e+04
  4.360888e+01    2.583222e+04
  4.370042e+01    1.662128e+04
  4.379196e+01    8.518395e+03
  4.388351e+01    7.579648e+03
  4.397505e+01    7.437650e+03
  4.406659e+01    7.613087e+03
  4.415813e+01    8.666183e+03
  4.424967e+01    1.769627e+04
  4.434121e+01    2.746846e+04
  4.443275e+01    1.116410e+04
  4.452430e+01    7.868307e+03
  4.461584e+01    7.315833e+03
  4.470738e+01    7.114052e+03
  4.479892e+01    7.027314e+03
  4.489046e+01    6.975920e+03
  4.498200e+01    6.975375e+03
  4.507354e+01    7.002125e+03
  4.516509e+01    7.139277e+03
  4.525663e+01    8.152652e+03
  4.534817e+01    1.279749e+04
  4.543971e+01    9.556871e+03
  4.553125e+01    7.237429e+03
  4.562279e+01    6.913815e+03
  4.571433e+01    6.826882e+03
  4.580588e+01    6.780438e+03
  4.589742e+01    6.750472e+03
  4.598896e+01    6.724730e+03
  4.608050e+01    6.697062e+03
  4.617204e+01    6.730304e+03
  4.626358e+01    6.937351e+03
  4.635513e+01    8.288385e+03
  4.644667e+01    7.900509e+03
  4.653821e+01    6.878833e+03
  4.662975e+01    6.723602e+03
  4.672129e+01    6.719658e+03
  4.681283e+01    6.753785e+03
  4.690437e+01    6.765603e+03
  4.699592e+01    6.800278e+03
  4.708746e+01    6.881563e+03
  4.717900e+01    6.944671e+03
  4.727054e+01    7.160344e+03
  4.736208e+01    8.141856e+03
  4.745362e+01    8.048471e+03
  4.754516e+01    7.595395e+03
  4.763671e+01    7.735381e+03
  4.772825e+01    7.591232e+03
  4.781979e+01    7.199883e+03
  4.788844e+01    2.895332e+03