File: Output/ROCK_XRD/WAM39B_integrated/rampe1/wam39b_rampe_1_xrd_000033_integrated.dat
# == pyFAI calibration ==
# Distance Sample to Detector: 0.261615 m
# PONI: 2.023e-01, 2.348e-01 m
# Rotations: -0.026380 0.002005 0.000000 rad
#
# == Fit2d calibration ==
# Distance Sample-beamCenter: 261.707 mm
# Center: x=6119.331, y=5134.776 pix
# Tilt: 1.516 deg  TiltPlanRot: 4.347 deg
#
# Detector Rayonix SX165	 PixelSize= 3.950e-05, 3.950e-05 m
#    Detector has a mask: True
#    Detector has a dark current: False
#    detector has a flat field: False
#
# Wavelength: 1.12713e-10 m
# Mask applied: from detector
# Dark current applied: False
# Flat field applied: False
# Polarization factor: None
# Normalization factor: 1.0
# --> ROCK\\WAM39B_integrated\wam39b_rampe_1_xrd_000033_integrated.dat
#       2th_deg             I
  2.502596e+01    4.374205e+03
  2.511750e+01    1.798279e+04
  2.520905e+01    1.824886e+04
  2.530059e+01    1.833137e+04
  2.539213e+01    1.780023e+04
  2.548367e+01    1.768415e+04
  2.557521e+01    1.757304e+04
  2.566675e+01    1.752480e+04
  2.575829e+01    1.734158e+04
  2.584984e+01    1.719726e+04
  2.594138e+01    1.730083e+04
  2.603292e+01    1.783681e+04
  2.612446e+01    1.964185e+04
  2.621600e+01    2.968652e+04
  2.630754e+01    5.849304e+04
  2.639908e+01    2.917248e+04
  2.649063e+01    1.898655e+04
  2.658217e+01    1.693709e+04
  2.667371e+01    1.622632e+04
  2.676525e+01    1.587446e+04
  2.685679e+01    1.559761e+04
  2.694833e+01    1.537148e+04
  2.703988e+01    1.518940e+04
  2.713142e+01    1.502398e+04
  2.722296e+01    1.483409e+04
  2.731450e+01    1.468937e+04
  2.740604e+01    1.450386e+04
  2.749758e+01    1.440560e+04
  2.758912e+01    1.431531e+04
  2.768067e+01    1.427767e+04
  2.777221e+01    1.444247e+04
  2.786375e+01    1.630810e+04
  2.795529e+01    1.806671e+04
  2.804683e+01    1.455579e+04
  2.813837e+01    1.365169e+04
  2.822991e+01    1.332506e+04
  2.832146e+01    1.313240e+04
  2.841300e+01    1.295089e+04
  2.850454e+01    1.278449e+04
  2.859608e+01    1.263128e+04
  2.868762e+01    1.243645e+04
  2.877916e+01    1.227608e+04
  2.887070e+01    1.211033e+04
  2.896225e+01    1.193977e+04
  2.905379e+01    1.176048e+04
  2.914533e+01    1.159607e+04
  2.923687e+01    1.148576e+04
  2.932841e+01    1.146347e+04
  2.941995e+01    1.217592e+04
  2.951149e+01    1.243055e+04
  2.960304e+01    1.113042e+04
  2.969458e+01    1.079292e+04
  2.978612e+01    1.066805e+04
  2.987766e+01    1.057159e+04
  2.996920e+01    1.054474e+04
  3.006074e+01    1.060407e+04
  3.015228e+01    1.077423e+04
  3.024383e+01    1.133142e+04
  3.033537e+01    1.434227e+04
  3.042691e+01    3.851338e+04
  3.051845e+01    5.065522e+04
  3.060999e+01    1.628085e+04
  3.070153e+01    1.176028e+04
  3.079308e+01    1.173685e+04
  3.088462e+01    1.824600e+04
  3.097616e+01    2.504798e+04
  3.106770e+01    1.274411e+04
  3.115924e+01    1.022546e+04
  3.125078e+01    9.730931e+03
  3.134232e+01    9.493073e+03
  3.143387e+01    9.376817e+03
  3.152541e+01    9.270746e+03
  3.161695e+01    9.175633e+03
  3.170849e+01    9.096908e+03
  3.180003e+01    9.025484e+03
  3.189157e+01    8.962406e+03
  3.198311e+01    8.910005e+03
  3.207466e+01    8.858534e+03
  3.216620e+01    8.825090e+03
  3.225774e+01    9.030996e+03
  3.234928e+01    1.009956e+04
  3.244082e+01    9.249579e+03
  3.253236e+01    8.663425e+03
  3.262390e+01    8.532831e+03
  3.271545e+01    8.459353e+03
  3.280699e+01    8.404838e+03
  3.289853e+01    8.365752e+03
  3.299007e+01    8.301124e+03
  3.308161e+01    8.263185e+03
  3.317315e+01    8.233343e+03
  3.326469e+01    8.211079e+03
  3.335624e+01    8.214752e+03
  3.344778e+01    8.280022e+03
  3.353932e+01    8.599654e+03
  3.363086e+01    1.124583e+04
  3.372240e+01    2.002600e+04
  3.381394e+01    1.183619e+04
  3.390549e+01    8.515590e+03
  3.399703e+01    8.027757e+03
  3.408857e+01    7.847772e+03
  3.418011e+01    7.758502e+03
  3.427165e+01    7.699810e+03
  3.436319e+01    7.645812e+03
  3.445473e+01    7.590080e+03
  3.454628e+01    7.542125e+03
  3.463782e+01    7.495000e+03
  3.472936e+01    7.464066e+03
  3.482090e+01    7.413841e+03
  3.491244e+01    7.369982e+03
  3.500398e+01    7.329520e+03
  3.509552e+01    7.300127e+03
  3.518707e+01    7.274694e+03
  3.527861e+01    7.239388e+03
  3.537015e+01    7.204054e+03
  3.546169e+01    7.160074e+03
  3.555323e+01    7.137073e+03
  3.564477e+01    7.099339e+03
  3.573631e+01    7.091081e+03
  3.582786e+01    7.083108e+03
  3.591940e+01    7.094017e+03
  3.601094e+01    7.125688e+03
  3.610248e+01    7.244463e+03
  3.619402e+01    7.884256e+03
  3.628556e+01    1.137558e+04
  3.637710e+01    9.419590e+03
  3.646865e+01    7.471479e+03
  3.656019e+01    7.260498e+03
  3.665173e+01    7.223963e+03
  3.674327e+01    7.226336e+03
  3.683481e+01    7.262074e+03
  3.692635e+01    7.320919e+03
  3.701790e+01    7.411532e+03
  3.710944e+01    7.553007e+03
  3.720098e+01    7.846579e+03
  3.729252e+01    8.533750e+03
  3.738406e+01    1.141319e+04
  3.747560e+01    3.569612e+04
  3.756714e+01    5.891475e+04
  3.765869e+01    1.694937e+04
  3.775023e+01    9.382408e+03
  3.784177e+01    8.163998e+03
  3.793331e+01    7.760184e+03
  3.802485e+01    7.549223e+03
  3.811639e+01    7.444757e+03
  3.820793e+01    7.372709e+03
  3.829948e+01    7.343410e+03
  3.839102e+01    7.322025e+03
  3.848256e+01    7.328193e+03
  3.857410e+01    7.411907e+03
  3.866564e+01    8.159261e+03
  3.875718e+01    9.291140e+03
  3.884872e+01    7.677012e+03
  3.894027e+01    7.321265e+03
  3.903181e+01    7.252465e+03
  3.912335e+01    7.227103e+03
  3.921489e+01    7.198229e+03
  3.930643e+01    7.186161e+03
  3.939797e+01    7.160888e+03
  3.948951e+01    7.116908e+03
  3.958106e+01    7.090323e+03
  3.967260e+01    7.069007e+03
  3.976414e+01    7.072309e+03
  3.985568e+01    7.371838e+03
  3.994722e+01    7.428275e+03
  4.003876e+01    7.040874e+03
  4.013031e+01    6.987979e+03
  4.022185e+01    6.958823e+03
  4.031339e+01    6.941150e+03
  4.040493e+01    6.927413e+03
  4.049647e+01    6.914902e+03
  4.058801e+01    6.913467e+03
  4.067955e+01    6.914792e+03
  4.077110e+01    6.968549e+03
  4.086264e+01    7.143394e+03
  4.095418e+01    8.594726e+03
  4.104572e+01    1.288390e+04
  4.113726e+01    8.641461e+03
  4.122880e+01    7.107608e+03
  4.132034e+01    6.904107e+03
  4.141189e+01    6.843504e+03
  4.150343e+01    6.814361e+03
  4.159497e+01    6.812872e+03
  4.168651e+01    6.811869e+03
  4.177805e+01    6.793745e+03
  4.186959e+01    6.790958e+03
  4.196113e+01    6.805776e+03
  4.205268e+01    7.019367e+03
  4.214422e+01    7.995697e+03
  4.223576e+01    7.270327e+03
  4.232730e+01    6.818325e+03
  4.241884e+01    6.764830e+03
  4.251038e+01    6.747683e+03
  4.260192e+01    6.747055e+03
  4.269347e+01    6.757395e+03
  4.278501e+01    6.756052e+03
  4.287655e+01    6.781664e+03
  4.296809e+01    6.875004e+03
  4.305963e+01    7.020988e+03
  4.315117e+01    8.151475e+03
  4.324272e+01    1.189863e+04
  4.333426e+01    8.703354e+03
  4.342580e+01    7.709754e+03
  4.351734e+01    1.022508e+04
  4.360888e+01    2.548962e+04
  4.370042e+01    1.453511e+04
  4.379196e+01    7.936921e+03
  4.388351e+01    7.172998e+03
  4.397505e+01    7.061625e+03
  4.406659e+01    7.243327e+03
  4.415813e+01    8.348000e+03
  4.424967e+01    1.792122e+04
  4.434121e+01    2.555183e+04
  4.443275e+01    1.014778e+04
  4.452430e+01    7.408381e+03
  4.461584e+01    6.935276e+03
  4.470738e+01    6.746638e+03
  4.479892e+01    6.669196e+03
  4.489046e+01    6.633616e+03
  4.498200e+01    6.642815e+03
  4.507354e+01    6.660020e+03
  4.516509e+01    6.802596e+03
  4.525663e+01    7.897483e+03
  4.534817e+01    1.232871e+04
  4.543971e+01    8.825729e+03
  4.553125e+01    6.851212e+03
  4.562279e+01    6.563039e+03
  4.571433e+01    6.489324e+03
  4.580588e+01    6.443395e+03
  4.589742e+01    6.415458e+03
  4.598896e+01    6.382425e+03
  4.608050e+01    6.373746e+03
  4.617204e+01    6.400735e+03
  4.626358e+01    6.622176e+03
  4.635513e+01    7.988296e+03
  4.644667e+01    7.423023e+03
  4.653821e+01    6.511389e+03
  4.662975e+01    6.405553e+03
  4.672129e+01    6.387507e+03
  4.681283e+01    6.403323e+03
  4.690437e+01    6.446262e+03
  4.699592e+01    6.480534e+03
  4.708746e+01    6.545151e+03
  4.717900e+01    6.607026e+03
  4.727054e+01    6.831118e+03
  4.736208e+01    7.804127e+03
  4.745362e+01    7.564431e+03
  4.754516e+01    7.202443e+03
  4.763671e+01    7.356139e+03
  4.772825e+01    7.203686e+03
  4.781979e+01    6.840766e+03
  4.788844e+01    2.770391e+03