File: Output/ROCK_XRD/WAM39B_integrated/rampe1/wam39b_rampe_1_xrd_000008_integrated.dat
# == pyFAI calibration ==
# Distance Sample to Detector: 0.261615 m
# PONI: 2.023e-01, 2.348e-01 m
# Rotations: -0.026380 0.002005 0.000000 rad
#
# == Fit2d calibration ==
# Distance Sample-beamCenter: 261.707 mm
# Center: x=6119.331, y=5134.776 pix
# Tilt: 1.516 deg  TiltPlanRot: 4.347 deg
#
# Detector Rayonix SX165	 PixelSize= 3.950e-05, 3.950e-05 m
#    Detector has a mask: True
#    Detector has a dark current: False
#    detector has a flat field: False
#
# Wavelength: 1.12713e-10 m
# Mask applied: from detector
# Dark current applied: False
# Flat field applied: False
# Polarization factor: None
# Normalization factor: 1.0
# --> ROCK\\WAM39B_integrated\wam39b_rampe_1_xrd_000008_integrated.dat
#       2th_deg             I
  2.502596e+01    4.696177e+03
  2.511750e+01    1.929292e+04
  2.520905e+01    1.963135e+04
  2.530059e+01    1.981009e+04
  2.539213e+01    1.945730e+04
  2.548367e+01    1.974122e+04
  2.557521e+01    2.044383e+04
  2.566675e+01    2.149304e+04
  2.575829e+01    2.191667e+04
  2.584984e+01    2.136428e+04
  2.594138e+01    2.059564e+04
  2.603292e+01    2.048286e+04
  2.612446e+01    2.086566e+04
  2.621600e+01    2.179756e+04
  2.630754e+01    2.379733e+04
  2.639908e+01    3.033195e+04
  2.649063e+01    2.980379e+04
  2.658217e+01    2.354623e+04
  2.667371e+01    2.232544e+04
  2.676525e+01    2.187441e+04
  2.685679e+01    2.114724e+04
  2.694833e+01    2.001217e+04
  2.703988e+01    1.882117e+04
  2.713142e+01    1.789657e+04
  2.722296e+01    1.719497e+04
  2.731450e+01    1.674541e+04
  2.740604e+01    1.638268e+04
  2.749758e+01    1.621519e+04
  2.758912e+01    1.613427e+04
  2.768067e+01    1.615601e+04
  2.777221e+01    1.636681e+04
  2.786375e+01    1.697805e+04
  2.795529e+01    1.833049e+04
  2.804683e+01    2.161869e+04
  2.813837e+01    2.004772e+04
  2.822991e+01    1.646899e+04
  2.832146e+01    1.514124e+04
  2.841300e+01    1.443061e+04
  2.850454e+01    1.398488e+04
  2.859608e+01    1.367802e+04
  2.868762e+01    1.338448e+04
  2.877916e+01    1.315076e+04
  2.887070e+01    1.293723e+04
  2.896225e+01    1.273249e+04
  2.905379e+01    1.253598e+04
  2.914533e+01    1.235441e+04
  2.923687e+01    1.221976e+04
  2.932841e+01    1.207781e+04
  2.941995e+01    1.199429e+04
  2.951149e+01    1.214955e+04
  2.960304e+01    1.330694e+04
  2.969458e+01    1.280251e+04
  2.978612e+01    1.168892e+04
  2.987766e+01    1.141762e+04
  2.996920e+01    1.134334e+04
  3.006074e+01    1.133189e+04
  3.015228e+01    1.134588e+04
  3.024383e+01    1.137603e+04
  3.033537e+01    1.149545e+04
  3.042691e+01    1.168963e+04
  3.051845e+01    1.197758e+04
  3.060999e+01    1.244301e+04
  3.070153e+01    1.315800e+04
  3.079308e+01    1.421870e+04
  3.088462e+01    1.566172e+04
  3.097616e+01    1.825010e+04
  3.106770e+01    2.828817e+04
  3.115924e+01    3.006871e+04
  3.125078e+01    1.724573e+04
  3.134232e+01    1.367922e+04
  3.143387e+01    1.236002e+04
  3.152541e+01    1.161542e+04
  3.161695e+01    1.116187e+04
  3.170849e+01    1.086039e+04
  3.180003e+01    1.061946e+04
  3.189157e+01    1.045015e+04
  3.198311e+01    1.029739e+04
  3.207466e+01    1.017019e+04
  3.216620e+01    1.004756e+04
  3.225774e+01    9.952431e+03
  3.234928e+01    9.911120e+03
  3.244082e+01    1.019786e+04
  3.253236e+01    1.129192e+04
  3.262390e+01    1.024609e+04
  3.271545e+01    9.527479e+03
  3.280699e+01    9.352491e+03
  3.289853e+01    9.256204e+03
  3.299007e+01    9.176523e+03
  3.308161e+01    9.113013e+03
  3.317315e+01    9.084271e+03
  3.326469e+01    9.047462e+03
  3.335624e+01    9.041082e+03
  3.344778e+01    9.048221e+03
  3.353932e+01    9.065796e+03
  3.363086e+01    9.202812e+03
  3.372240e+01    9.762403e+03
  3.381394e+01    1.318865e+04
  3.390549e+01    2.235260e+04
  3.399703e+01    1.418880e+04
  3.408857e+01    9.878760e+03
  3.418011e+01    9.169307e+03
  3.427165e+01    8.969348e+03
  3.436319e+01    8.836181e+03
  3.445473e+01    8.716235e+03
  3.454628e+01    8.589760e+03
  3.463782e+01    8.504538e+03
  3.472936e+01    8.467171e+03
  3.482090e+01    8.452538e+03
  3.491244e+01    8.497784e+03
  3.500398e+01    8.593146e+03
  3.509552e+01    8.685006e+03
  3.518707e+01    8.631875e+03
  3.527861e+01    8.446153e+03
  3.537015e+01    8.270307e+03
  3.546169e+01    8.141562e+03
  3.555323e+01    8.035565e+03
  3.564477e+01    7.975011e+03
  3.573631e+01    7.927747e+03
  3.582786e+01    7.897827e+03
  3.591940e+01    7.887188e+03
  3.601094e+01    7.891641e+03
  3.610248e+01    7.909897e+03
  3.619402e+01    7.967793e+03
  3.628556e+01    8.105917e+03
  3.637710e+01    8.775484e+03
  3.646865e+01    1.223225e+04
  3.656019e+01    1.168224e+04
  3.665173e+01    8.669192e+03
  3.674327e+01    8.156933e+03
  3.683481e+01    8.078233e+03
  3.692635e+01    8.074634e+03
  3.701790e+01    8.120186e+03
  3.710944e+01    8.192794e+03
  3.720098e+01    8.352694e+03
  3.729252e+01    8.563555e+03
  3.738406e+01    8.949422e+03
  3.747560e+01    9.878253e+03
  3.756714e+01    1.293757e+04
  3.765869e+01    3.182557e+04
  3.775023e+01    7.233359e+04
  3.784177e+01    3.032165e+04
  3.793331e+01    1.284054e+04
  3.802485e+01    9.864204e+03
  3.811639e+01    8.986062e+03
  3.820793e+01    8.590280e+03
  3.829948e+01    8.418506e+03
  3.839102e+01    8.314588e+03
  3.848256e+01    8.244439e+03
  3.857410e+01    8.193918e+03
  3.866564e+01    8.155300e+03
  3.875718e+01    8.210781e+03
  3.884872e+01    8.706262e+03
  3.894027e+01    1.046071e+04
  3.903181e+01    9.111574e+03
  3.912335e+01    8.181110e+03
  3.921489e+01    8.015279e+03
  3.930643e+01    7.960213e+03
  3.939797e+01    7.933928e+03
  3.948951e+01    7.899352e+03
  3.958106e+01    7.876929e+03
  3.967260e+01    7.859692e+03
  3.976414e+01    7.837070e+03
  3.985568e+01    7.837415e+03
  3.994722e+01    7.874319e+03
  4.003876e+01    8.073339e+03
  4.013031e+01    8.511946e+03
  4.022185e+01    8.127667e+03
  4.031339e+01    8.045360e+03
  4.040493e+01    8.129599e+03
  4.049647e+01    8.178733e+03
  4.058801e+01    8.132844e+03
  4.067955e+01    7.996585e+03
  4.077110e+01    7.886484e+03
  4.086264e+01    7.824531e+03
  4.095418e+01    7.842004e+03
  4.104572e+01    7.979761e+03
  4.113726e+01    8.767276e+03
  4.122880e+01    1.310297e+04
  4.132034e+01    1.285501e+04
  4.141189e+01    8.816870e+03
  4.150343e+01    8.149226e+03
  4.159497e+01    8.041218e+03
  4.168651e+01    7.959858e+03
  4.177805e+01    7.866300e+03
  4.186959e+01    7.818410e+03
  4.196113e+01    7.807483e+03
  4.205268e+01    7.807724e+03
  4.214422e+01    7.823309e+03
  4.223576e+01    7.931302e+03
  4.232730e+01    8.635229e+03
  4.241884e+01    9.073018e+03
  4.251038e+01    7.956742e+03
  4.260192e+01    7.638215e+03
  4.269347e+01    7.553714e+03
  4.278501e+01    7.500434e+03
  4.287655e+01    7.474703e+03
  4.296809e+01    7.465163e+03
  4.305963e+01    7.477143e+03
  4.315117e+01    7.525576e+03
  4.324272e+01    7.663971e+03
  4.333426e+01    8.179407e+03
  4.342580e+01    1.118170e+04
  4.351734e+01    1.279580e+04
  4.360888e+01    8.891199e+03
  4.370042e+01    8.149214e+03
  4.379196e+01    8.192914e+03
  4.388351e+01    8.424045e+03
  4.397505e+01    8.621766e+03
  4.406659e+01    8.838675e+03
  4.415813e+01    9.206936e+03
  4.424967e+01    9.786349e+03
  4.434121e+01    1.078173e+04
  4.443275e+01    1.425221e+04
  4.452430e+01    3.037275e+04
  4.461584e+01    2.546685e+04
  4.470738e+01    1.216867e+04
  4.479892e+01    9.570938e+03
  4.489046e+01    8.745597e+03
  4.498200e+01    8.330253e+03
  4.507354e+01    8.071712e+03
  4.516509e+01    7.892591e+03
  4.525663e+01    7.814518e+03
  4.534817e+01    7.847376e+03
  4.543971e+01    8.225509e+03
  4.553125e+01    1.072382e+04
  4.562279e+01    1.442504e+04
  4.571433e+01    9.660031e+03
  4.580588e+01    8.024078e+03
  4.589742e+01    7.702423e+03
  4.598896e+01    7.584928e+03
  4.608050e+01    7.530160e+03
  4.617204e+01    7.495487e+03
  4.626358e+01    7.482618e+03
  4.635513e+01    7.470810e+03
  4.644667e+01    7.524759e+03
  4.653821e+01    7.990292e+03
  4.662975e+01    9.453542e+03
  4.672129e+01    8.410445e+03
  4.681283e+01    7.681312e+03
  4.690437e+01    7.600363e+03
  4.699592e+01    7.639245e+03
  4.708746e+01    7.631302e+03
  4.717900e+01    7.560823e+03
  4.727054e+01    7.530548e+03
  4.736208e+01    7.562304e+03
  4.745362e+01    7.725134e+03
  4.754516e+01    8.272875e+03
  4.763671e+01    9.538909e+03
  4.772825e+01    8.661523e+03
  4.781979e+01    7.765192e+03
  4.788844e+01    3.130844e+03