File: Output/ROCK_XRD/WAM39B_integrated/rampe1/wam39b_rampe_1_xrd_000019_integrated.dat
# == pyFAI calibration ==
# Distance Sample to Detector: 0.261615 m
# PONI: 2.023e-01, 2.348e-01 m
# Rotations: -0.026380 0.002005 0.000000 rad
#
# == Fit2d calibration ==
# Distance Sample-beamCenter: 261.707 mm
# Center: x=6119.331, y=5134.776 pix
# Tilt: 1.516 deg  TiltPlanRot: 4.347 deg
#
# Detector Rayonix SX165	 PixelSize= 3.950e-05, 3.950e-05 m
#    Detector has a mask: True
#    Detector has a dark current: False
#    detector has a flat field: False
#
# Wavelength: 1.12713e-10 m
# Mask applied: from detector
# Dark current applied: False
# Flat field applied: False
# Polarization factor: None
# Normalization factor: 1.0
# --> ROCK\\WAM39B_integrated\wam39b_rampe_1_xrd_000019_integrated.dat
#       2th_deg             I
  2.502596e+01    5.272832e+03
  2.511750e+01    2.162058e+04
  2.520905e+01    2.198569e+04
  2.530059e+01    2.218699e+04
  2.539213e+01    2.184318e+04
  2.548367e+01    2.241075e+04
  2.557521e+01    2.350050e+04
  2.566675e+01    2.434613e+04
  2.575829e+01    2.458208e+04
  2.584984e+01    2.342918e+04
  2.594138e+01    2.274764e+04
  2.603292e+01    2.308108e+04
  2.612446e+01    2.402748e+04
  2.621600e+01    2.593425e+04
  2.630754e+01    3.139718e+04
  2.639908e+01    3.748757e+04
  2.649063e+01    2.954196e+04
  2.658217e+01    2.692642e+04
  2.667371e+01    2.609946e+04
  2.676525e+01    2.477565e+04
  2.685679e+01    2.296273e+04
  2.694833e+01    2.127181e+04
  2.703988e+01    2.009309e+04
  2.713142e+01    1.933790e+04
  2.722296e+01    1.879545e+04
  2.731450e+01    1.842742e+04
  2.740604e+01    1.819082e+04
  2.749758e+01    1.811644e+04
  2.758912e+01    1.816675e+04
  2.768067e+01    1.840619e+04
  2.777221e+01    1.908054e+04
  2.786375e+01    2.060769e+04
  2.795529e+01    2.355889e+04
  2.804683e+01    2.425992e+04
  2.813837e+01    1.906492e+04
  2.822991e+01    1.709796e+04
  2.832146e+01    1.628055e+04
  2.841300e+01    1.578300e+04
  2.850454e+01    1.545159e+04
  2.859608e+01    1.520521e+04
  2.868762e+01    1.493874e+04
  2.877916e+01    1.471115e+04
  2.887070e+01    1.450709e+04
  2.896225e+01    1.440294e+04
  2.905379e+01    1.408595e+04
  2.914533e+01    1.387498e+04
  2.923687e+01    1.374361e+04
  2.932841e+01    1.362270e+04
  2.941995e+01    1.365521e+04
  2.951149e+01    1.453127e+04
  2.960304e+01    1.494200e+04
  2.969458e+01    1.340419e+04
  2.978612e+01    1.295483e+04
  2.987766e+01    1.280154e+04
  2.996920e+01    1.274965e+04
  3.006074e+01    1.275828e+04
  3.015228e+01    1.281243e+04
  3.024383e+01    1.291276e+04
  3.033537e+01    1.315504e+04
  3.042691e+01    1.357519e+04
  3.051845e+01    1.423795e+04
  3.060999e+01    1.532038e+04
  3.070153e+01    1.687199e+04
  3.079308e+01    1.868244e+04
  3.088462e+01    2.080603e+04
  3.097616e+01    2.817984e+04
  3.106770e+01    3.646897e+04
  3.115924e+01    2.074985e+04
  3.125078e+01    1.526166e+04
  3.134232e+01    1.362159e+04
  3.143387e+01    1.286360e+04
  3.152541e+01    1.239799e+04
  3.161695e+01    1.208242e+04
  3.170849e+01    1.188787e+04
  3.180003e+01    1.172009e+04
  3.189157e+01    1.161350e+04
  3.198311e+01    1.152363e+04
  3.207466e+01    1.142506e+04
  3.216620e+01    1.133566e+04
  3.225774e+01    1.124913e+04
  3.234928e+01    1.139311e+04
  3.244082e+01    1.252035e+04
  3.253236e+01    1.186486e+04
  3.262390e+01    1.084209e+04
  3.271545e+01    1.058906e+04
  3.280699e+01    1.046634e+04
  3.289853e+01    1.038648e+04
  3.299007e+01    1.030312e+04
  3.308161e+01    1.025106e+04
  3.317315e+01    1.022359e+04
  3.326469e+01    1.020477e+04
  3.335624e+01    1.021041e+04
  3.344778e+01    1.022355e+04
  3.353932e+01    1.032393e+04
  3.363086e+01    1.078690e+04
  3.372240e+01    1.364242e+04
  3.381394e+01    2.373333e+04
  3.390549e+01    1.760279e+04
  3.399703e+01    1.135747e+04
  3.408857e+01    1.036295e+04
  3.418011e+01    1.011094e+04
  3.427165e+01    9.987607e+03
  3.436319e+01    9.861517e+03
  3.445473e+01    9.717007e+03
  3.454628e+01    9.611083e+03
  3.463782e+01    9.529865e+03
  3.472936e+01    9.511495e+03
  3.482090e+01    9.542379e+03
  3.491244e+01    9.671131e+03
  3.500398e+01    9.884043e+03
  3.509552e+01    9.898362e+03
  3.518707e+01    9.626991e+03
  3.527861e+01    9.367569e+03
  3.537015e+01    9.203664e+03
  3.546169e+01    9.090528e+03
  3.555323e+01    9.008493e+03
  3.564477e+01    8.941475e+03
  3.573631e+01    8.905166e+03
  3.582786e+01    8.886556e+03
  3.591940e+01    8.881953e+03
  3.601094e+01    8.906174e+03
  3.610248e+01    8.956708e+03
  3.619402e+01    9.107736e+03
  3.628556e+01    9.699571e+03
  3.637710e+01    1.301363e+04
  3.646865e+01    1.346443e+04
  3.656019e+01    9.902057e+03
  3.665173e+01    9.235335e+03
  3.674327e+01    9.134364e+03
  3.683481e+01    9.118825e+03
  3.692635e+01    9.154279e+03
  3.701790e+01    9.228621e+03
  3.710944e+01    9.374647e+03
  3.720098e+01    9.653795e+03
  3.729252e+01    1.004790e+04
  3.738406e+01    1.097307e+04
  3.747560e+01    1.393021e+04
  3.756714e+01    3.156485e+04
  3.765869e+01    7.867885e+04
  3.775023e+01    3.651055e+04
  3.784177e+01    1.475315e+04
  3.793331e+01    1.121733e+04
  3.802485e+01    1.015844e+04
  3.811639e+01    9.738276e+03
  3.820793e+01    9.517904e+03
  3.829948e+01    9.437190e+03
  3.839102e+01    9.370895e+03
  3.848256e+01    9.310259e+03
  3.857410e+01    9.259391e+03
  3.866564e+01    9.287961e+03
  3.875718e+01    9.772031e+03
  3.884872e+01    1.161991e+04
  3.894027e+01    1.035727e+04
  3.903181e+01    9.275817e+03
  3.912335e+01    9.112198e+03
  3.921489e+01    9.055648e+03
  3.930643e+01    9.036084e+03
  3.939797e+01    9.030726e+03
  3.948951e+01    9.009632e+03
  3.958106e+01    8.997405e+03
  3.967260e+01    8.979079e+03
  3.976414e+01    8.935544e+03
  3.985568e+01    8.952219e+03
  3.994722e+01    9.143259e+03
  4.003876e+01    9.563097e+03
  4.013031e+01    9.168062e+03
  4.022185e+01    9.074363e+03
  4.031339e+01    9.199476e+03
  4.040493e+01    9.267802e+03
  4.049647e+01    9.179685e+03
  4.058801e+01    8.997660e+03
  4.067955e+01    8.870986e+03
  4.077110e+01    8.823282e+03
  4.086264e+01    8.847740e+03
  4.095418e+01    9.025317e+03
  4.104572e+01    9.901171e+03
  4.113726e+01    1.459291e+04
  4.122880e+01    1.419770e+04
  4.132034e+01    9.990401e+03
  4.141189e+01    9.294618e+03
  4.150343e+01    9.031884e+03
  4.159497e+01    8.923074e+03
  4.168651e+01    8.901148e+03
  4.177805e+01    8.897045e+03
  4.186959e+01    8.925860e+03
  4.196113e+01    8.980435e+03
  4.205268e+01    9.044179e+03
  4.214422e+01    9.178483e+03
  4.223576e+01    9.947408e+03
  4.232730e+01    1.026814e+04
  4.241884e+01    9.083574e+03
  4.251038e+01    8.759689e+03
  4.260192e+01    8.635282e+03
  4.269347e+01    8.570905e+03
  4.278501e+01    8.515330e+03
  4.287655e+01    8.488697e+03
  4.296809e+01    8.503640e+03
  4.305963e+01    8.555176e+03
  4.315117e+01    8.706884e+03
  4.324272e+01    9.312328e+03
  4.333426e+01    1.278611e+04
  4.342580e+01    1.385642e+04
  4.351734e+01    9.830203e+03
  4.360888e+01    9.183556e+03
  4.370042e+01    9.321487e+03
  4.379196e+01    9.723146e+03
  4.388351e+01    1.011006e+04
  4.397505e+01    1.044832e+04
  4.406659e+01    1.099408e+04
  4.415813e+01    1.166121e+04
  4.424967e+01    1.265141e+04
  4.434121e+01    1.679373e+04
  4.443275e+01    3.449256e+04
  4.452430e+01    2.505490e+04
  4.461584e+01    1.248616e+04
  4.470738e+01    1.019433e+04
  4.479892e+01    9.515952e+03
  4.489046e+01    9.160634e+03
  4.498200e+01    8.942289e+03
  4.507354e+01    8.790254e+03
  4.516509e+01    8.724347e+03
  4.525663e+01    8.798916e+03
  4.534817e+01    9.335025e+03
  4.543971e+01    1.258855e+04
  4.553125e+01    1.544421e+04
  4.562279e+01    1.030780e+04
  4.571433e+01    9.013457e+03
  4.580588e+01    8.783324e+03
  4.589742e+01    8.726091e+03
  4.598896e+01    8.702687e+03
  4.608050e+01    8.669253e+03
  4.617204e+01    8.610296e+03
  4.626358e+01    8.578497e+03
  4.635513e+01    8.609503e+03
  4.644667e+01    9.236039e+03
  4.653821e+01    1.071155e+04
  4.662975e+01    9.277948e+03
  4.672129e+01    8.670865e+03
  4.681283e+01    8.648075e+03
  4.690437e+01    8.629951e+03
  4.699592e+01    8.519031e+03
  4.708746e+01    8.431077e+03
  4.717900e+01    8.372198e+03
  4.727054e+01    8.402318e+03
  4.736208e+01    8.544934e+03
  4.745362e+01    9.142044e+03
  4.754516e+01    1.046401e+04
  4.763671e+01    9.734735e+03
  4.772825e+01    9.164150e+03
  4.781979e+01    8.754523e+03
  4.788844e+01    3.529479e+03