File: Output/ROCK_XRD/WAM39B_integrated/rampe1/wam39b_rampe_1_xrd_000037_integrated.dat
# == pyFAI calibration ==
# Distance Sample to Detector: 0.261615 m
# PONI: 2.023e-01, 2.348e-01 m
# Rotations: -0.026380 0.002005 0.000000 rad
#
# == Fit2d calibration ==
# Distance Sample-beamCenter: 261.707 mm
# Center: x=6119.331, y=5134.776 pix
# Tilt: 1.516 deg  TiltPlanRot: 4.347 deg
#
# Detector Rayonix SX165	 PixelSize= 3.950e-05, 3.950e-05 m
#    Detector has a mask: True
#    Detector has a dark current: False
#    detector has a flat field: False
#
# Wavelength: 1.12713e-10 m
# Mask applied: from detector
# Dark current applied: False
# Flat field applied: False
# Polarization factor: None
# Normalization factor: 1.0
# --> ROCK\\WAM39B_integrated\wam39b_rampe_1_xrd_000037_integrated.dat
#       2th_deg             I
  2.502596e+01    4.392630e+03
  2.511750e+01    1.804826e+04
  2.520905e+01    1.834935e+04
  2.530059e+01    1.840059e+04
  2.539213e+01    1.788667e+04
  2.548367e+01    1.774937e+04
  2.557521e+01    1.767903e+04
  2.566675e+01    1.759662e+04
  2.575829e+01    1.740257e+04
  2.584984e+01    1.727877e+04
  2.594138e+01    1.742055e+04
  2.603292e+01    1.798381e+04
  2.612446e+01    2.012712e+04
  2.621600e+01    3.277803e+04
  2.630754e+01    5.821889e+04
  2.639908e+01    2.659256e+04
  2.649063e+01    1.857124e+04
  2.658217e+01    1.684218e+04
  2.667371e+01    1.624549e+04
  2.676525e+01    1.590226e+04
  2.685679e+01    1.564391e+04
  2.694833e+01    1.543130e+04
  2.703988e+01    1.523723e+04
  2.713142e+01    1.509477e+04
  2.722296e+01    1.490705e+04
  2.731450e+01    1.474389e+04
  2.740604e+01    1.457460e+04
  2.749758e+01    1.445593e+04
  2.758912e+01    1.437949e+04
  2.768067e+01    1.434205e+04
  2.777221e+01    1.459576e+04
  2.786375e+01    1.689487e+04
  2.795529e+01    1.777193e+04
  2.804683e+01    1.441092e+04
  2.813837e+01    1.367218e+04
  2.822991e+01    1.336801e+04
  2.832146e+01    1.320910e+04
  2.841300e+01    1.299086e+04
  2.850454e+01    1.283408e+04
  2.859608e+01    1.268406e+04
  2.868762e+01    1.251280e+04
  2.877916e+01    1.232761e+04
  2.887070e+01    1.216926e+04
  2.896225e+01    1.199015e+04
  2.905379e+01    1.179560e+04
  2.914533e+01    1.164490e+04
  2.923687e+01    1.152783e+04
  2.932841e+01    1.154279e+04
  2.941995e+01    1.244355e+04
  2.951149e+01    1.229309e+04
  2.960304e+01    1.110252e+04
  2.969458e+01    1.083188e+04
  2.978612e+01    1.069000e+04
  2.987766e+01    1.060362e+04
  2.996920e+01    1.059129e+04
  3.006074e+01    1.065056e+04
  3.015228e+01    1.082693e+04
  3.024383e+01    1.148355e+04
  3.033537e+01    1.547690e+04
  3.042691e+01    4.606748e+04
  3.051845e+01    4.461625e+04
  3.060999e+01    1.472190e+04
  3.070153e+01    1.152317e+04
  3.079308e+01    1.195460e+04
  3.088462e+01    2.039307e+04
  3.097616e+01    2.353255e+04
  3.106770e+01    1.199155e+04
  3.115924e+01    1.012167e+04
  3.125078e+01    9.716745e+03
  3.134232e+01    9.511342e+03
  3.143387e+01    9.398564e+03
  3.152541e+01    9.295509e+03
  3.161695e+01    9.198859e+03
  3.170849e+01    9.130884e+03
  3.180003e+01    9.055501e+03
  3.189157e+01    8.992708e+03
  3.198311e+01    8.936317e+03
  3.207466e+01    8.881708e+03
  3.216620e+01    8.871496e+03
  3.225774e+01    9.158351e+03
  3.234928e+01    1.023482e+04
  3.244082e+01    9.119473e+03
  3.253236e+01    8.668800e+03
  3.262390e+01    8.558687e+03
  3.271545e+01    8.502772e+03
  3.280699e+01    8.435062e+03
  3.289853e+01    8.393511e+03
  3.299007e+01    8.339680e+03
  3.308161e+01    8.303000e+03
  3.317315e+01    8.262661e+03
  3.326469e+01    8.239052e+03
  3.335624e+01    8.235829e+03
  3.344778e+01    8.323835e+03
  3.353932e+01    8.730500e+03
  3.363086e+01    1.234365e+04
  3.372240e+01    2.021117e+04
  3.381394e+01    1.077401e+04
  3.390549e+01    8.398993e+03
  3.399703e+01    8.018140e+03
  3.408857e+01    7.874970e+03
  3.418011e+01    7.785320e+03
  3.427165e+01    7.720608e+03
  3.436319e+01    7.667132e+03
  3.445473e+01    7.617856e+03
  3.454628e+01    7.567838e+03
  3.463782e+01    7.521063e+03
  3.472936e+01    7.479243e+03
  3.482090e+01    7.443969e+03
  3.491244e+01    7.407613e+03
  3.500398e+01    7.362193e+03
  3.509552e+01    7.328062e+03
  3.518707e+01    7.305989e+03
  3.527861e+01    7.272317e+03
  3.537015e+01    7.228488e+03
  3.546169e+01    7.198795e+03
  3.555323e+01    7.150914e+03
  3.564477e+01    7.134164e+03
  3.573631e+01    7.115102e+03
  3.582786e+01    7.104629e+03
  3.591940e+01    7.119556e+03
  3.601094e+01    7.160486e+03
  3.610248e+01    7.288851e+03
  3.619402e+01    8.202783e+03
  3.628556e+01    1.191049e+04
  3.637710e+01    8.814577e+03
  3.646865e+01    7.408426e+03
  3.656019e+01    7.265254e+03
  3.665173e+01    7.231420e+03
  3.674327e+01    7.247559e+03
  3.683481e+01    7.287898e+03
  3.692635e+01    7.348469e+03
  3.701790e+01    7.435987e+03
  3.710944e+01    7.598062e+03
  3.720098e+01    7.906478e+03
  3.729252e+01    8.689223e+03
  3.738406e+01    1.254439e+04
  3.747560e+01    4.536031e+04
  3.756714e+01    5.198230e+04
  3.765869e+01    1.402968e+04
  3.775023e+01    8.987637e+03
  3.784177e+01    8.044412e+03
  3.793331e+01    7.715024e+03
  3.802485e+01    7.530830e+03
  3.811639e+01    7.446540e+03
  3.820793e+01    7.390228e+03
  3.829948e+01    7.361976e+03
  3.839102e+01    7.333977e+03
  3.848256e+01    7.351064e+03
  3.857410e+01    7.473569e+03
  3.866564e+01    8.529849e+03
  3.875718e+01    9.121699e+03
  3.884872e+01    7.567625e+03
  3.894027e+01    7.323055e+03
  3.903181e+01    7.273190e+03
  3.912335e+01    7.242413e+03
  3.921489e+01    7.218921e+03
  3.930643e+01    7.208465e+03
  3.939797e+01    7.180898e+03
  3.948951e+01    7.143145e+03
  3.958106e+01    7.113844e+03
  3.967260e+01    7.093001e+03
  3.976414e+01    7.121017e+03
  3.985568e+01    7.502726e+03
  3.994722e+01    7.363690e+03
  4.003876e+01    7.055524e+03
  4.013031e+01    7.013493e+03
  4.022185e+01    6.986739e+03
  4.031339e+01    6.966450e+03
  4.040493e+01    6.955034e+03
  4.049647e+01    6.943876e+03
  4.058801e+01    6.941714e+03
  4.067955e+01    6.943982e+03
  4.077110e+01    7.000009e+03
  4.086264e+01    7.231016e+03
  4.095418e+01    9.389197e+03
  4.104572e+01    1.277211e+04
  4.113726e+01    8.049075e+03
  4.122880e+01    7.067516e+03
  4.132034e+01    6.913987e+03
  4.141189e+01    6.869759e+03
  4.150343e+01    6.839842e+03
  4.159497e+01    6.829667e+03
  4.168651e+01    6.839321e+03
  4.177805e+01    6.813719e+03
  4.186959e+01    6.813850e+03
  4.196113e+01    6.848708e+03
  4.205268e+01    7.178144e+03
  4.214422e+01    8.072054e+03
  4.223576e+01    7.113413e+03
  4.232730e+01    6.829098e+03
  4.241884e+01    6.792670e+03
  4.251038e+01    6.767640e+03
  4.260192e+01    6.761434e+03
  4.269347e+01    6.772231e+03
  4.278501e+01    6.782459e+03
  4.287655e+01    6.816055e+03
  4.296809e+01    6.905878e+03
  4.305963e+01    7.091305e+03
  4.315117e+01    8.808464e+03
  4.324272e+01    1.191304e+04
  4.333426e+01    8.168681e+03
  4.342580e+01    7.810430e+03
  4.351734e+01    1.212388e+04
  4.360888e+01    2.696641e+04
  4.370042e+01    1.171553e+04
  4.379196e+01    7.592992e+03
  4.388351e+01    7.108601e+03
  4.397505e+01    7.083523e+03
  4.406659e+01    7.330578e+03
  4.415813e+01    8.929855e+03
  4.424967e+01    2.236199e+04
  4.434121e+01    2.237597e+04
  4.443275e+01    8.966126e+03
  4.452430e+01    7.251000e+03
  4.461584e+01    6.899785e+03
  4.470738e+01    6.743852e+03
  4.479892e+01    6.686472e+03
  4.489046e+01    6.646605e+03
  4.498200e+01    6.658470e+03
  4.507354e+01    6.685618e+03
  4.516509e+01    6.889775e+03
  4.525663e+01    8.600179e+03
  4.534817e+01    1.254360e+04
  4.543971e+01    8.014625e+03
  4.553125e+01    6.762138e+03
  4.562279e+01    6.554279e+03
  4.571433e+01    6.505829e+03
  4.580588e+01    6.464275e+03
  4.589742e+01    6.433603e+03
  4.598896e+01    6.403561e+03
  4.608050e+01    6.401128e+03
  4.617204e+01    6.447041e+03
  4.626358e+01    6.791989e+03
  4.635513e+01    8.271122e+03
  4.644667e+01    7.085583e+03
  4.653821e+01    6.495962e+03
  4.662975e+01    6.416494e+03
  4.672129e+01    6.404877e+03
  4.681283e+01    6.435083e+03
  4.690437e+01    6.455849e+03
  4.699592e+01    6.496517e+03
  4.708746e+01    6.572745e+03
  4.717900e+01    6.646151e+03
  4.727054e+01    6.960409e+03
  4.736208e+01    8.009260e+03
  4.745362e+01    7.382176e+03
  4.754516e+01    7.209338e+03
  4.763671e+01    7.377755e+03
  4.772825e+01    7.239102e+03
  4.781979e+01    6.882281e+03
  4.788844e+01    2.782666e+03