File: Output/ROCK_XRD/WAM39B_integrated/rampe1/wam39b_rampe_1_xrd_000010_integrated.dat
# == pyFAI calibration ==
# Distance Sample to Detector: 0.261615 m
# PONI: 2.023e-01, 2.348e-01 m
# Rotations: -0.026380 0.002005 0.000000 rad
#
# == Fit2d calibration ==
# Distance Sample-beamCenter: 261.707 mm
# Center: x=6119.331, y=5134.776 pix
# Tilt: 1.516 deg  TiltPlanRot: 4.347 deg
#
# Detector Rayonix SX165	 PixelSize= 3.950e-05, 3.950e-05 m
#    Detector has a mask: True
#    Detector has a dark current: False
#    detector has a flat field: False
#
# Wavelength: 1.12713e-10 m
# Mask applied: from detector
# Dark current applied: False
# Flat field applied: False
# Polarization factor: None
# Normalization factor: 1.0
# --> ROCK\\WAM39B_integrated\wam39b_rampe_1_xrd_000010_integrated.dat
#       2th_deg             I
  2.502596e+01    5.000935e+03
  2.511750e+01    2.054695e+04
  2.520905e+01    2.089344e+04
  2.530059e+01    2.108183e+04
  2.539213e+01    2.069787e+04
  2.548367e+01    2.096354e+04
  2.557521e+01    2.171567e+04
  2.566675e+01    2.283578e+04
  2.575829e+01    2.326081e+04
  2.584984e+01    2.273508e+04
  2.594138e+01    2.191391e+04
  2.603292e+01    2.180400e+04
  2.612446e+01    2.216203e+04
  2.621600e+01    2.315367e+04
  2.630754e+01    2.525655e+04
  2.639908e+01    3.217714e+04
  2.649063e+01    3.190435e+04
  2.658217e+01    2.516441e+04
  2.667371e+01    2.381278e+04
  2.676525e+01    2.331531e+04
  2.685679e+01    2.250799e+04
  2.694833e+01    2.125672e+04
  2.703988e+01    1.996450e+04
  2.713142e+01    1.899918e+04
  2.722296e+01    1.826672e+04
  2.731450e+01    1.777789e+04
  2.740604e+01    1.742996e+04
  2.749758e+01    1.725763e+04
  2.758912e+01    1.716934e+04
  2.768067e+01    1.719243e+04
  2.777221e+01    1.743114e+04
  2.786375e+01    1.809142e+04
  2.795529e+01    1.950175e+04
  2.804683e+01    2.290387e+04
  2.813837e+01    2.134076e+04
  2.822991e+01    1.747743e+04
  2.832146e+01    1.609543e+04
  2.841300e+01    1.533271e+04
  2.850454e+01    1.487362e+04
  2.859608e+01    1.455206e+04
  2.868762e+01    1.423645e+04
  2.877916e+01    1.399075e+04
  2.887070e+01    1.375873e+04
  2.896225e+01    1.354587e+04
  2.905379e+01    1.333370e+04
  2.914533e+01    1.314662e+04
  2.923687e+01    1.299240e+04
  2.932841e+01    1.285187e+04
  2.941995e+01    1.276189e+04
  2.951149e+01    1.290162e+04
  2.960304e+01    1.411514e+04
  2.969458e+01    1.362779e+04
  2.978612e+01    1.244038e+04
  2.987766e+01    1.215281e+04
  2.996920e+01    1.206647e+04
  3.006074e+01    1.205593e+04
  3.015228e+01    1.206937e+04
  3.024383e+01    1.210987e+04
  3.033537e+01    1.224045e+04
  3.042691e+01    1.245287e+04
  3.051845e+01    1.276599e+04
  3.060999e+01    1.327325e+04
  3.070153e+01    1.406649e+04
  3.079308e+01    1.522562e+04
  3.088462e+01    1.675766e+04
  3.097616e+01    1.939006e+04
  3.106770e+01    2.968929e+04
  3.115924e+01    3.204976e+04
  3.125078e+01    1.834566e+04
  3.134232e+01    1.448546e+04
  3.143387e+01    1.310372e+04
  3.152541e+01    1.233450e+04
  3.161695e+01    1.185818e+04
  3.170849e+01    1.153537e+04
  3.180003e+01    1.129010e+04
  3.189157e+01    1.110995e+04
  3.198311e+01    1.095259e+04
  3.207466e+01    1.081994e+04
  3.216620e+01    1.068385e+04
  3.225774e+01    1.058984e+04
  3.234928e+01    1.052743e+04
  3.244082e+01    1.081531e+04
  3.253236e+01    1.197234e+04
  3.262390e+01    1.090047e+04
  3.271545e+01    1.014819e+04
  3.280699e+01    9.946833e+03
  3.289853e+01    9.843347e+03
  3.299007e+01    9.761772e+03
  3.308161e+01    9.701018e+03
  3.317315e+01    9.657008e+03
  3.326469e+01    9.627796e+03
  3.335624e+01    9.627440e+03
  3.344778e+01    9.619340e+03
  3.353932e+01    9.646112e+03
  3.363086e+01    9.778847e+03
  3.372240e+01    1.034112e+04
  3.381394e+01    1.379130e+04
  3.390549e+01    2.358605e+04
  3.399703e+01    1.523682e+04
  3.408857e+01    1.052321e+04
  3.418011e+01    9.750291e+03
  3.427165e+01    9.542330e+03
  3.436319e+01    9.403949e+03
  3.445473e+01    9.272094e+03
  3.454628e+01    9.152969e+03
  3.463782e+01    9.062460e+03
  3.472936e+01    9.009233e+03
  3.482090e+01    8.982938e+03
  3.491244e+01    9.024272e+03
  3.500398e+01    9.134530e+03
  3.509552e+01    9.247599e+03
  3.518707e+01    9.199670e+03
  3.527861e+01    8.999399e+03
  3.537015e+01    8.808817e+03
  3.546169e+01    8.659594e+03
  3.555323e+01    8.570980e+03
  3.564477e+01    8.481671e+03
  3.573631e+01    8.436039e+03
  3.582786e+01    8.403516e+03
  3.591940e+01    8.394955e+03
  3.601094e+01    8.395188e+03
  3.610248e+01    8.410845e+03
  3.619402e+01    8.467562e+03
  3.628556e+01    8.615317e+03
  3.637710e+01    9.285391e+03
  3.646865e+01    1.284954e+04
  3.656019e+01    1.247101e+04
  3.665173e+01    9.250658e+03
  3.674327e+01    8.695159e+03
  3.683481e+01    8.601646e+03
  3.692635e+01    8.592034e+03
  3.701790e+01    8.632495e+03
  3.710944e+01    8.714475e+03
  3.720098e+01    8.871097e+03
  3.729252e+01    9.102186e+03
  3.738406e+01    9.497493e+03
  3.747560e+01    1.042574e+04
  3.756714e+01    1.351193e+04
  3.765869e+01    3.247261e+04
  3.775023e+01    7.622495e+04
  3.784177e+01    3.311740e+04
  3.793331e+01    1.380576e+04
  3.802485e+01    1.052318e+04
  3.811639e+01    9.576025e+03
  3.820793e+01    9.156190e+03
  3.829948e+01    8.964680e+03
  3.839102e+01    8.847316e+03
  3.848256e+01    8.779881e+03
  3.857410e+01    8.722338e+03
  3.866564e+01    8.677309e+03
  3.875718e+01    8.736701e+03
  3.884872e+01    9.221497e+03
  3.894027e+01    1.108008e+04
  3.903181e+01    9.747485e+03
  3.912335e+01    8.710241e+03
  3.921489e+01    8.530374e+03
  3.930643e+01    8.476782e+03
  3.939797e+01    8.448497e+03
  3.948951e+01    8.416389e+03
  3.958106e+01    8.395894e+03
  3.967260e+01    8.371998e+03
  3.976414e+01    8.346190e+03
  3.985568e+01    8.350381e+03
  3.994722e+01    8.385808e+03
  4.003876e+01    8.565247e+03
  4.013031e+01    9.047578e+03
  4.022185e+01    8.652942e+03
  4.031339e+01    8.566598e+03
  4.040493e+01    8.654544e+03
  4.049647e+01    8.713986e+03
  4.058801e+01    8.654562e+03
  4.067955e+01    8.515059e+03
  4.077110e+01    8.402774e+03
  4.086264e+01    8.336280e+03
  4.095418e+01    8.343674e+03
  4.104572e+01    8.480427e+03
  4.113726e+01    9.260863e+03
  4.122880e+01    1.370357e+04
  4.132034e+01    1.374696e+04
  4.141189e+01    9.446367e+03
  4.150343e+01    8.701310e+03
  4.159497e+01    8.553001e+03
  4.168651e+01    8.449162e+03
  4.177805e+01    8.358736e+03
  4.186959e+01    8.309688e+03
  4.196113e+01    8.292622e+03
  4.205268e+01    8.305069e+03
  4.214422e+01    8.327366e+03
  4.223576e+01    8.428127e+03
  4.232730e+01    9.131749e+03
  4.241884e+01    9.646883e+03
  4.251038e+01    8.485268e+03
  4.260192e+01    8.145662e+03
  4.269347e+01    8.042771e+03
  4.278501e+01    7.982492e+03
  4.287655e+01    7.953665e+03
  4.296809e+01    7.957763e+03
  4.305963e+01    7.968025e+03
  4.315117e+01    8.012182e+03
  4.324272e+01    8.156645e+03
  4.333426e+01    8.667381e+03
  4.342580e+01    1.167823e+04
  4.351734e+01    1.363192e+04
  4.360888e+01    9.497041e+03
  4.370042e+01    8.673071e+03
  4.379196e+01    8.719976e+03
  4.388351e+01    8.963133e+03
  4.397505e+01    9.205129e+03
  4.406659e+01    9.426120e+03
  4.415813e+01    9.824120e+03
  4.424967e+01    1.042846e+04
  4.434121e+01    1.144463e+04
  4.443275e+01    1.483551e+04
  4.452430e+01    3.145541e+04
  4.461584e+01    2.742188e+04
  4.470738e+01    1.302037e+04
  4.479892e+01    1.016958e+04
  4.489046e+01    9.283641e+03
  4.498200e+01    8.858081e+03
  4.507354e+01    8.575166e+03
  4.516509e+01    8.402409e+03
  4.525663e+01    8.312785e+03
  4.534817e+01    8.354661e+03
  4.543971e+01    8.705299e+03
  4.553125e+01    1.118668e+04
  4.562279e+01    1.527990e+04
  4.571433e+01    1.038354e+04
  4.580588e+01    8.539300e+03
  4.589742e+01    8.199129e+03
  4.598896e+01    8.081680e+03
  4.608050e+01    8.026583e+03
  4.617204e+01    7.982286e+03
  4.626358e+01    7.964274e+03
  4.635513e+01    7.943579e+03
  4.644667e+01    8.003000e+03
  4.653821e+01    8.456061e+03
  4.662975e+01    1.002930e+04
  4.672129e+01    8.990822e+03
  4.681283e+01    8.192453e+03
  4.690437e+01    8.095514e+03
  4.699592e+01    8.135483e+03
  4.708746e+01    8.134908e+03
  4.717900e+01    8.042658e+03
  4.727054e+01    8.011639e+03
  4.736208e+01    8.054733e+03
  4.745362e+01    8.221776e+03
  4.754516e+01    8.783395e+03
  4.763671e+01    1.010268e+04
  4.772825e+01    9.248155e+03
  4.781979e+01    8.252748e+03
  4.788844e+01    3.317859e+03