File: Output/ROCK_XRD/WAM39B_integrated/rampe1/wam39b_rampe_1_xrd_000029_integrated.dat
# == pyFAI calibration ==
# Distance Sample to Detector: 0.261615 m
# PONI: 2.023e-01, 2.348e-01 m
# Rotations: -0.026380 0.002005 0.000000 rad
#
# == Fit2d calibration ==
# Distance Sample-beamCenter: 261.707 mm
# Center: x=6119.331, y=5134.776 pix
# Tilt: 1.516 deg  TiltPlanRot: 4.347 deg
#
# Detector Rayonix SX165	 PixelSize= 3.950e-05, 3.950e-05 m
#    Detector has a mask: True
#    Detector has a dark current: False
#    detector has a flat field: False
#
# Wavelength: 1.12713e-10 m
# Mask applied: from detector
# Dark current applied: False
# Flat field applied: False
# Polarization factor: None
# Normalization factor: 1.0
# --> ROCK\\WAM39B_integrated\wam39b_rampe_1_xrd_000029_integrated.dat
#       2th_deg             I
  2.502596e+01    4.037015e+03
  2.511750e+01    1.657213e+04
  2.520905e+01    1.681864e+04
  2.530059e+01    1.690517e+04
  2.539213e+01    1.642528e+04
  2.548367e+01    1.634168e+04
  2.557521e+01    1.628826e+04
  2.566675e+01    1.623627e+04
  2.575829e+01    1.608310e+04
  2.584984e+01    1.597503e+04
  2.594138e+01    1.612179e+04
  2.603292e+01    1.673613e+04
  2.612446e+01    1.875410e+04
  2.621600e+01    2.874161e+04
  2.630754e+01    5.130184e+04
  2.639908e+01    2.768992e+04
  2.649063e+01    1.795091e+04
  2.658217e+01    1.581274e+04
  2.667371e+01    1.508733e+04
  2.676525e+01    1.471207e+04
  2.685679e+01    1.444319e+04
  2.694833e+01    1.423964e+04
  2.703988e+01    1.403328e+04
  2.713142e+01    1.390747e+04
  2.722296e+01    1.373136e+04
  2.731450e+01    1.358672e+04
  2.740604e+01    1.343613e+04
  2.749758e+01    1.334095e+04
  2.758912e+01    1.326889e+04
  2.768067e+01    1.326040e+04
  2.777221e+01    1.356275e+04
  2.786375e+01    1.565620e+04
  2.795529e+01    1.630276e+04
  2.804683e+01    1.337988e+04
  2.813837e+01    1.263401e+04
  2.822991e+01    1.235652e+04
  2.832146e+01    1.218320e+04
  2.841300e+01    1.199892e+04
  2.850454e+01    1.186011e+04
  2.859608e+01    1.170810e+04
  2.868762e+01    1.154804e+04
  2.877916e+01    1.139470e+04
  2.887070e+01    1.124507e+04
  2.896225e+01    1.108567e+04
  2.905379e+01    1.092844e+04
  2.914533e+01    1.078256e+04
  2.923687e+01    1.068869e+04
  2.932841e+01    1.074087e+04
  2.941995e+01    1.153235e+04
  2.951149e+01    1.138045e+04
  2.960304e+01    1.034787e+04
  2.969458e+01    1.007623e+04
  2.978612e+01    9.956262e+03
  2.987766e+01    9.893681e+03
  2.996920e+01    9.902804e+03
  3.006074e+01    9.969611e+03
  3.015228e+01    1.017799e+04
  3.024383e+01    1.082851e+04
  3.033537e+01    1.390839e+04
  3.042691e+01    3.344790e+04
  3.051845e+01    4.608810e+04
  3.060999e+01    1.655727e+04
  3.070153e+01    1.163410e+04
  3.079308e+01    1.177829e+04
  3.088462e+01    1.934064e+04
  3.097616e+01    2.154166e+04
  3.106770e+01    1.149642e+04
  3.115924e+01    9.556407e+03
  3.125078e+01    9.099485e+03
  3.134232e+01    8.893261e+03
  3.143387e+01    8.770145e+03
  3.152541e+01    8.672021e+03
  3.161695e+01    8.580436e+03
  3.170849e+01    8.497920e+03
  3.180003e+01    8.438088e+03
  3.189157e+01    8.373421e+03
  3.198311e+01    8.324645e+03
  3.207466e+01    8.288407e+03
  3.216620e+01    8.281245e+03
  3.225774e+01    8.579365e+03
  3.234928e+01    9.455521e+03
  3.244082e+01    8.522702e+03
  3.253236e+01    8.085657e+03
  3.262390e+01    7.981962e+03
  3.271545e+01    7.924223e+03
  3.280699e+01    7.869372e+03
  3.289853e+01    7.830170e+03
  3.299007e+01    7.777912e+03
  3.308161e+01    7.747898e+03
  3.317315e+01    7.713896e+03
  3.326469e+01    7.700418e+03
  3.335624e+01    7.711886e+03
  3.344778e+01    7.809975e+03
  3.353932e+01    8.302341e+03
  3.363086e+01    1.192764e+04
  3.372240e+01    1.819167e+04
  3.381394e+01    1.027469e+04
  3.390549e+01    7.936728e+03
  3.399703e+01    7.527022e+03
  3.408857e+01    7.371877e+03
  3.418011e+01    7.281208e+03
  3.427165e+01    7.221023e+03
  3.436319e+01    7.177437e+03
  3.445473e+01    7.120667e+03
  3.454628e+01    7.071399e+03
  3.463782e+01    7.036139e+03
  3.472936e+01    7.000271e+03
  3.482090e+01    6.950733e+03
  3.491244e+01    6.924237e+03
  3.500398e+01    6.879743e+03
  3.509552e+01    6.858603e+03
  3.518707e+01    6.824505e+03
  3.527861e+01    6.787691e+03
  3.537015e+01    6.753653e+03
  3.546169e+01    6.723583e+03
  3.555323e+01    6.697557e+03
  3.564477e+01    6.671333e+03
  3.573631e+01    6.665128e+03
  3.582786e+01    6.651328e+03
  3.591940e+01    6.675263e+03
  3.601094e+01    6.722854e+03
  3.610248e+01    6.877483e+03
  3.619402e+01    7.853720e+03
  3.628556e+01    1.089040e+04
  3.637710e+01    8.316498e+03
  3.646865e+01    6.995219e+03
  3.656019e+01    6.833874e+03
  3.665173e+01    6.798029e+03
  3.674327e+01    6.812451e+03
  3.683481e+01    6.850396e+03
  3.692635e+01    6.915753e+03
  3.701790e+01    7.028157e+03
  3.710944e+01    7.212474e+03
  3.720098e+01    7.568194e+03
  3.729252e+01    8.509806e+03
  3.738406e+01    1.304061e+04
  3.747560e+01    4.294973e+04
  3.756714e+01    4.691269e+04
  3.765869e+01    1.406057e+04
  3.775023e+01    8.744713e+03
  3.784177e+01    7.688336e+03
  3.793331e+01    7.319188e+03
  3.802485e+01    7.103771e+03
  3.811639e+01    7.004680e+03
  3.820793e+01    6.937985e+03
  3.829948e+01    6.904039e+03
  3.839102e+01    6.878371e+03
  3.848256e+01    6.896264e+03
  3.857410e+01    7.037724e+03
  3.866564e+01    8.023875e+03
  3.875718e+01    8.442688e+03
  3.884872e+01    7.115715e+03
  3.894027e+01    6.860368e+03
  3.903181e+01    6.804966e+03
  3.912335e+01    6.783080e+03
  3.921489e+01    6.750118e+03
  3.930643e+01    6.729819e+03
  3.939797e+01    6.709944e+03
  3.948951e+01    6.678746e+03
  3.958106e+01    6.655260e+03
  3.967260e+01    6.631430e+03
  3.976414e+01    6.667318e+03
  3.985568e+01    6.997900e+03
  3.994722e+01    6.876935e+03
  4.003876e+01    6.591143e+03
  4.013031e+01    6.554271e+03
  4.022185e+01    6.524701e+03
  4.031339e+01    6.513482e+03
  4.040493e+01    6.498874e+03
  4.049647e+01    6.488299e+03
  4.058801e+01    6.489185e+03
  4.067955e+01    6.503057e+03
  4.077110e+01    6.569696e+03
  4.086264e+01    6.870373e+03
  4.095418e+01    8.990980e+03
  4.104572e+01    1.160654e+04
  4.113726e+01    7.635059e+03
  4.122880e+01    6.652468e+03
  4.132034e+01    6.480341e+03
  4.141189e+01    6.435345e+03
  4.150343e+01    6.407288e+03
  4.159497e+01    6.392368e+03
  4.168651e+01    6.394273e+03
  4.177805e+01    6.373619e+03
  4.186959e+01    6.383610e+03
  4.196113e+01    6.423225e+03
  4.205268e+01    6.757811e+03
  4.214422e+01    7.488467e+03
  4.223576e+01    6.677451e+03
  4.232730e+01    6.392485e+03
  4.241884e+01    6.356077e+03
  4.251038e+01    6.339550e+03
  4.260192e+01    6.338796e+03
  4.269347e+01    6.350730e+03
  4.278501e+01    6.371035e+03
  4.287655e+01    6.402323e+03
  4.296809e+01    6.502763e+03
  4.305963e+01    6.747732e+03
  4.315117e+01    8.480359e+03
  4.324272e+01    1.094097e+04
  4.333426e+01    7.783439e+03
  4.342580e+01    7.374681e+03
  4.351734e+01    9.760429e+03
  4.360888e+01    2.260457e+04
  4.370042e+01    1.487076e+04
  4.379196e+01    7.919779e+03
  4.388351e+01    6.934604e+03
  4.397505e+01    6.799806e+03
  4.406659e+01    7.081613e+03
  4.415813e+01    8.981876e+03
  4.424967e+01    2.105995e+04
  4.434121e+01    2.037938e+04
  4.443275e+01    8.738020e+03
  4.452430e+01    6.915931e+03
  4.461584e+01    6.523466e+03
  4.470738e+01    6.363110e+03
  4.479892e+01    6.286756e+03
  4.489046e+01    6.253817e+03
  4.498200e+01    6.247226e+03
  4.507354e+01    6.299274e+03
  4.516509e+01    6.539278e+03
  4.525663e+01    8.314767e+03
  4.534817e+01    1.144032e+04
  4.543971e+01    7.591474e+03
  4.553125e+01    6.382557e+03
  4.562279e+01    6.157099e+03
  4.571433e+01    6.094182e+03
  4.580588e+01    6.047330e+03
  4.589742e+01    6.023165e+03
  4.598896e+01    5.990267e+03
  4.608050e+01    5.992704e+03
  4.617204e+01    6.040202e+03
  4.626358e+01    6.430346e+03
  4.635513e+01    7.648123e+03
  4.644667e+01    6.648857e+03
  4.653821e+01    6.093005e+03
  4.662975e+01    5.993271e+03
  4.672129e+01    5.992328e+03
  4.681283e+01    6.020734e+03
  4.690437e+01    6.041651e+03
  4.699592e+01    6.081958e+03
  4.708746e+01    6.147038e+03
  4.717900e+01    6.223512e+03
  4.727054e+01    6.546684e+03
  4.736208e+01    7.415410e+03
  4.745362e+01    6.875180e+03
  4.754516e+01    6.721111e+03
  4.763671e+01    6.865875e+03
  4.772825e+01    6.727158e+03
  4.781979e+01    6.409849e+03
  4.788844e+01    2.591876e+03