File: Output/ROCK_XRD/WAM39B_integrated/rampe1/wam39b_rampe_1_xrd_000020_integrated.dat
# == pyFAI calibration ==
# Distance Sample to Detector: 0.261615 m
# PONI: 2.023e-01, 2.348e-01 m
# Rotations: -0.026380 0.002005 0.000000 rad
#
# == Fit2d calibration ==
# Distance Sample-beamCenter: 261.707 mm
# Center: x=6119.331, y=5134.776 pix
# Tilt: 1.516 deg  TiltPlanRot: 4.347 deg
#
# Detector Rayonix SX165	 PixelSize= 3.950e-05, 3.950e-05 m
#    Detector has a mask: True
#    Detector has a dark current: False
#    detector has a flat field: False
#
# Wavelength: 1.12713e-10 m
# Mask applied: from detector
# Dark current applied: False
# Flat field applied: False
# Polarization factor: None
# Normalization factor: 1.0
# --> ROCK\\WAM39B_integrated\wam39b_rampe_1_xrd_000020_integrated.dat
#       2th_deg             I
  2.502596e+01    4.727907e+03
  2.511750e+01    1.939888e+04
  2.520905e+01    1.975213e+04
  2.530059e+01    1.993113e+04
  2.539213e+01    1.970234e+04
  2.548367e+01    2.028898e+04
  2.557521e+01    2.133191e+04
  2.566675e+01    2.203495e+04
  2.575829e+01    2.206688e+04
  2.584984e+01    2.080601e+04
  2.594138e+01    2.031752e+04
  2.603292e+01    2.077294e+04
  2.612446e+01    2.181678e+04
  2.621600e+01    2.401732e+04
  2.630754e+01    3.054836e+04
  2.639908e+01    3.307619e+04
  2.649063e+01    2.660550e+04
  2.658217e+01    2.512692e+04
  2.667371e+01    2.410470e+04
  2.676525e+01    2.230909e+04
  2.685679e+01    2.031393e+04
  2.694833e+01    1.877178e+04
  2.703988e+01    1.779213e+04
  2.713142e+01    1.719706e+04
  2.722296e+01    1.675535e+04
  2.731450e+01    1.649220e+04
  2.740604e+01    1.630208e+04
  2.749758e+01    1.629048e+04
  2.758912e+01    1.638911e+04
  2.768067e+01    1.669974e+04
  2.777221e+01    1.750755e+04
  2.786375e+01    1.929095e+04
  2.795529e+01    2.233190e+04
  2.804683e+01    2.079420e+04
  2.813837e+01    1.655449e+04
  2.822991e+01    1.516989e+04
  2.832146e+01    1.455877e+04
  2.841300e+01    1.416516e+04
  2.850454e+01    1.389473e+04
  2.859608e+01    1.367487e+04
  2.868762e+01    1.344388e+04
  2.877916e+01    1.325925e+04
  2.887070e+01    1.307281e+04
  2.896225e+01    1.287338e+04
  2.905379e+01    1.269251e+04
  2.914533e+01    1.252856e+04
  2.923687e+01    1.241169e+04
  2.932841e+01    1.231154e+04
  2.941995e+01    1.244354e+04
  2.951149e+01    1.350979e+04
  2.960304e+01    1.310943e+04
  2.969458e+01    1.194995e+04
  2.978612e+01    1.166374e+04
  2.987766e+01    1.154448e+04
  2.996920e+01    1.149595e+04
  3.006074e+01    1.149289e+04
  3.015228e+01    1.155601e+04
  3.024383e+01    1.164486e+04
  3.033537e+01    1.188431e+04
  3.042691e+01    1.235142e+04
  3.051845e+01    1.313176e+04
  3.060999e+01    1.448725e+04
  3.070153e+01    1.636008e+04
  3.079308e+01    1.827902e+04
  3.088462e+01    2.050815e+04
  3.097616e+01    2.947101e+04
  3.106770e+01    2.951989e+04
  3.115924e+01    1.640144e+04
  3.125078e+01    1.301657e+04
  3.134232e+01    1.188069e+04
  3.143387e+01    1.130497e+04
  3.152541e+01    1.095584e+04
  3.161695e+01    1.074126e+04
  3.170849e+01    1.061244e+04
  3.180003e+01    1.050911e+04
  3.189157e+01    1.045738e+04
  3.198311e+01    1.041028e+04
  3.207466e+01    1.036362e+04
  3.216620e+01    1.028967e+04
  3.225774e+01    1.022243e+04
  3.234928e+01    1.051736e+04
  3.244082e+01    1.148291e+04
  3.253236e+01    1.035142e+04
  3.262390e+01    9.724497e+03
  3.271545e+01    9.542405e+03
  3.280699e+01    9.440363e+03
  3.289853e+01    9.367293e+03
  3.299007e+01    9.295906e+03
  3.308161e+01    9.250359e+03
  3.317315e+01    9.230700e+03
  3.326469e+01    9.224973e+03
  3.335624e+01    9.227796e+03
  3.344778e+01    9.255998e+03
  3.353932e+01    9.395641e+03
  3.363086e+01    1.005484e+04
  3.372240e+01    1.420173e+04
  3.381394e+01    2.218652e+04
  3.390549e+01    1.323559e+04
  3.399703e+01    9.821867e+03
  3.408857e+01    9.240263e+03
  3.418011e+01    9.071537e+03
  3.427165e+01    8.985249e+03
  3.436319e+01    8.867769e+03
  3.445473e+01    8.729808e+03
  3.454628e+01    8.641961e+03
  3.463782e+01    8.581857e+03
  3.472936e+01    8.577833e+03
  3.482090e+01    8.636812e+03
  3.491244e+01    8.816624e+03
  3.500398e+01    9.013770e+03
  3.509552e+01    8.913811e+03
  3.518707e+01    8.614983e+03
  3.527861e+01    8.401283e+03
  3.537015e+01    8.270043e+03
  3.546169e+01    8.182942e+03
  3.555323e+01    8.110756e+03
  3.564477e+01    8.062362e+03
  3.573631e+01    8.037736e+03
  3.582786e+01    8.018128e+03
  3.591940e+01    8.025964e+03
  3.601094e+01    8.052318e+03
  3.610248e+01    8.120622e+03
  3.619402e+01    8.311971e+03
  3.628556e+01    9.285018e+03
  3.637710e+01    1.292828e+04
  3.646865e+01    1.079436e+04
  3.656019e+01    8.632929e+03
  3.665173e+01    8.297171e+03
  3.674327e+01    8.241546e+03
  3.683481e+01    8.239704e+03
  3.692635e+01    8.287871e+03
  3.701790e+01    8.369956e+03
  3.710944e+01    8.540156e+03
  3.720098e+01    8.807538e+03
  3.729252e+01    9.271891e+03
  3.738406e+01    1.043981e+04
  3.747560e+01    1.498327e+04
  3.756714e+01    4.331700e+04
  3.765869e+01    6.631002e+04
  3.775023e+01    2.235404e+04
  3.784177e+01    1.176995e+04
  3.793331e+01    9.734062e+03
  3.802485e+01    9.002549e+03
  3.811639e+01    8.713349e+03
  3.820793e+01    8.565192e+03
  3.829948e+01    8.532947e+03
  3.839102e+01    8.474614e+03
  3.848256e+01    8.402423e+03
  3.857410e+01    8.368501e+03
  3.866564e+01    8.450451e+03
  3.875718e+01    9.313424e+03
  3.884872e+01    1.053889e+04
  3.894027e+01    8.838658e+03
  3.903181e+01    8.307038e+03
  3.912335e+01    8.213773e+03
  3.921489e+01    8.184697e+03
  3.930643e+01    8.176546e+03
  3.939797e+01    8.177167e+03
  3.948951e+01    8.173839e+03
  3.958106e+01    8.183526e+03
  3.967260e+01    8.139809e+03
  3.976414e+01    8.115572e+03
  3.985568e+01    8.132172e+03
  3.994722e+01    8.442595e+03
  4.003876e+01    8.558614e+03
  4.013031e+01    8.197090e+03
  4.022185e+01    8.208154e+03
  4.031339e+01    8.313263e+03
  4.040493e+01    8.327311e+03
  4.049647e+01    8.210414e+03
  4.058801e+01    8.059634e+03
  4.067955e+01    7.962293e+03
  4.077110e+01    7.940420e+03
  4.086264e+01    8.005832e+03
  4.095418e+01    8.292405e+03
  4.104572e+01    9.876749e+03
  4.113726e+01    1.453461e+04
  4.122880e+01    1.089965e+04
  4.132034e+01    8.695020e+03
  4.141189e+01    8.291035e+03
  4.150343e+01    8.098828e+03
  4.159497e+01    8.030122e+03
  4.168651e+01    8.037536e+03
  4.177805e+01    8.068618e+03
  4.186959e+01    8.136825e+03
  4.196113e+01    8.224663e+03
  4.205268e+01    8.326589e+03
  4.214422e+01    8.577652e+03
  4.223576e+01    9.518937e+03
  4.232730e+01    8.930566e+03
  4.241884e+01    8.131864e+03
  4.251038e+01    7.923271e+03
  4.260192e+01    7.807692e+03
  4.269347e+01    7.738165e+03
  4.278501e+01    7.692792e+03
  4.287655e+01    7.682598e+03
  4.296809e+01    7.710095e+03
  4.305963e+01    7.765199e+03
  4.315117e+01    7.979572e+03
  4.324272e+01    9.087054e+03
  4.333426e+01    1.311143e+04
  4.342580e+01    1.074240e+04
  4.351734e+01    8.472826e+03
  4.360888e+01    8.265241e+03
  4.370042e+01    8.543476e+03
  4.379196e+01    8.977510e+03
  4.388351e+01    9.371578e+03
  4.397505e+01    9.879077e+03
  4.406659e+01    1.053454e+04
  4.415813e+01    1.118247e+04
  4.424967e+01    1.242633e+04
  4.434121e+01    2.009163e+04
  4.443275e+01    3.247077e+04
  4.452430e+01    1.588050e+04
  4.461584e+01    9.990804e+03
  4.470738e+01    8.788000e+03
  4.479892e+01    8.362037e+03
  4.489046e+01    8.099969e+03
  4.498200e+01    7.950606e+03
  4.507354e+01    7.848790e+03
  4.516509e+01    7.838845e+03
  4.525663e+01    8.001161e+03
  4.534817e+01    9.007657e+03
  4.543971e+01    1.352274e+04
  4.553125e+01    1.193795e+04
  4.562279e+01    8.561240e+03
  4.571433e+01    8.042111e+03
  4.580588e+01    7.968703e+03
  4.589742e+01    7.962685e+03
  4.598896e+01    7.985314e+03
  4.608050e+01    7.947644e+03
  4.617204e+01    7.904536e+03
  4.626358e+01    7.856502e+03
  4.635513e+01    7.943699e+03
  4.644667e+01    9.053535e+03
  4.653821e+01    9.349973e+03
  4.662975e+01    8.044336e+03
  4.672129e+01    7.818236e+03
  4.681283e+01    7.854034e+03
  4.690437e+01    7.760285e+03
  4.699592e+01    7.618932e+03
  4.708746e+01    7.554014e+03
  4.717900e+01    7.532291e+03
  4.727054e+01    7.588836e+03
  4.736208e+01    7.798312e+03
  4.745362e+01    8.713764e+03
  4.754516e+01    9.199853e+03
  4.763671e+01    8.553037e+03
  4.772825e+01    8.263594e+03
  4.781979e+01    7.912074e+03
  4.788844e+01    3.223855e+03