File: Output/ROCK_XRD/WAM39B_integrated/rampe1/wam39b_rampe_1_xrd_000035_integrated.dat
# == pyFAI calibration ==
# Distance Sample to Detector: 0.261615 m
# PONI: 2.023e-01, 2.348e-01 m
# Rotations: -0.026380 0.002005 0.000000 rad
#
# == Fit2d calibration ==
# Distance Sample-beamCenter: 261.707 mm
# Center: x=6119.331, y=5134.776 pix
# Tilt: 1.516 deg  TiltPlanRot: 4.347 deg
#
# Detector Rayonix SX165	 PixelSize= 3.950e-05, 3.950e-05 m
#    Detector has a mask: True
#    Detector has a dark current: False
#    detector has a flat field: False
#
# Wavelength: 1.12713e-10 m
# Mask applied: from detector
# Dark current applied: False
# Flat field applied: False
# Polarization factor: None
# Normalization factor: 1.0
# --> ROCK\\WAM39B_integrated\wam39b_rampe_1_xrd_000035_integrated.dat
#       2th_deg             I
  2.502596e+01    4.357797e+03
  2.511750e+01    1.791070e+04
  2.520905e+01    1.816645e+04
  2.530059e+01    1.824596e+04
  2.539213e+01    1.772668e+04
  2.548367e+01    1.760499e+04
  2.557521e+01    1.749271e+04
  2.566675e+01    1.743548e+04
  2.575829e+01    1.724462e+04
  2.584984e+01    1.711016e+04
  2.594138e+01    1.721182e+04
  2.603292e+01    1.771259e+04
  2.612446e+01    1.939420e+04
  2.621600e+01    2.898137e+04
  2.630754e+01    5.780100e+04
  2.639908e+01    2.953454e+04
  2.649063e+01    1.889020e+04
  2.658217e+01    1.682207e+04
  2.667371e+01    1.615241e+04
  2.676525e+01    1.579627e+04
  2.685679e+01    1.552963e+04
  2.694833e+01    1.530431e+04
  2.703988e+01    1.510337e+04
  2.713142e+01    1.495199e+04
  2.722296e+01    1.477951e+04
  2.731450e+01    1.461019e+04
  2.740604e+01    1.444106e+04
  2.749758e+01    1.432326e+04
  2.758912e+01    1.424742e+04
  2.768067e+01    1.419846e+04
  2.777221e+01    1.436269e+04
  2.786375e+01    1.615543e+04
  2.795529e+01    1.806580e+04
  2.804683e+01    1.450889e+04
  2.813837e+01    1.359710e+04
  2.822991e+01    1.326911e+04
  2.832146e+01    1.306932e+04
  2.841300e+01    1.288383e+04
  2.850454e+01    1.271290e+04
  2.859608e+01    1.258520e+04
  2.868762e+01    1.237840e+04
  2.877916e+01    1.222265e+04
  2.887070e+01    1.205635e+04
  2.896225e+01    1.188171e+04
  2.905379e+01    1.169264e+04
  2.914533e+01    1.153664e+04
  2.923687e+01    1.142306e+04
  2.932841e+01    1.140138e+04
  2.941995e+01    1.207770e+04
  2.951149e+01    1.240260e+04
  2.960304e+01    1.107923e+04
  2.969458e+01    1.074184e+04
  2.978612e+01    1.059466e+04
  2.987766e+01    1.049919e+04
  2.996920e+01    1.049043e+04
  3.006074e+01    1.053247e+04
  3.015228e+01    1.067598e+04
  3.024383e+01    1.120578e+04
  3.033537e+01    1.406918e+04
  3.042691e+01    3.705761e+04
  3.051845e+01    5.041543e+04
  3.060999e+01    1.612586e+04
  3.070153e+01    1.162771e+04
  3.079308e+01    1.156068e+04
  3.088462e+01    1.777366e+04
  3.097616e+01    2.522592e+04
  3.106770e+01    1.272631e+04
  3.115924e+01    1.015953e+04
  3.125078e+01    9.653349e+03
  3.134232e+01    9.442044e+03
  3.143387e+01    9.325568e+03
  3.152541e+01    9.213513e+03
  3.161695e+01    9.120558e+03
  3.170849e+01    9.045479e+03
  3.180003e+01    8.973788e+03
  3.189157e+01    8.914068e+03
  3.198311e+01    8.857456e+03
  3.207466e+01    8.805224e+03
  3.216620e+01    8.782085e+03
  3.225774e+01    8.962605e+03
  3.234928e+01    1.002925e+04
  3.244082e+01    9.233897e+03
  3.253236e+01    8.618072e+03
  3.262390e+01    8.494192e+03
  3.271545e+01    8.428133e+03
  3.280699e+01    8.369965e+03
  3.289853e+01    8.318265e+03
  3.299007e+01    8.264073e+03
  3.308161e+01    8.218164e+03
  3.317315e+01    8.185601e+03
  3.326469e+01    8.163333e+03
  3.335624e+01    8.163078e+03
  3.344778e+01    8.218740e+03
  3.353932e+01    8.513625e+03
  3.363086e+01    1.096811e+04
  3.372240e+01    1.997503e+04
  3.381394e+01    1.190146e+04
  3.390549e+01    8.465546e+03
  3.399703e+01    7.980771e+03
  3.408857e+01    7.809266e+03
  3.418011e+01    7.721899e+03
  3.427165e+01    7.657862e+03
  3.436319e+01    7.600729e+03
  3.445473e+01    7.551956e+03
  3.454628e+01    7.497464e+03
  3.463782e+01    7.448510e+03
  3.472936e+01    7.408257e+03
  3.482090e+01    7.366933e+03
  3.491244e+01    7.333419e+03
  3.500398e+01    7.293219e+03
  3.509552e+01    7.260561e+03
  3.518707e+01    7.233878e+03
  3.527861e+01    7.201500e+03
  3.537015e+01    7.159263e+03
  3.546169e+01    7.122646e+03
  3.555323e+01    7.086301e+03
  3.564477e+01    7.059881e+03
  3.573631e+01    7.042175e+03
  3.582786e+01    7.036247e+03
  3.591940e+01    7.052509e+03
  3.601094e+01    7.079448e+03
  3.610248e+01    7.173943e+03
  3.619402e+01    7.784682e+03
  3.628556e+01    1.125792e+04
  3.637710e+01    9.458040e+03
  3.646865e+01    7.424871e+03
  3.656019e+01    7.209690e+03
  3.665173e+01    7.170485e+03
  3.674327e+01    7.176772e+03
  3.683481e+01    7.214175e+03
  3.692635e+01    7.267615e+03
  3.701790e+01    7.353676e+03
  3.710944e+01    7.486384e+03
  3.720098e+01    7.757211e+03
  3.729252e+01    8.396110e+03
  3.738406e+01    1.102518e+04
  3.747560e+01    3.390475e+04
  3.756714e+01    5.992554e+04
  3.765869e+01    1.713220e+04
  3.775023e+01    9.312142e+03
  3.784177e+01    8.099159e+03
  3.793331e+01    7.701515e+03
  3.802485e+01    7.488458e+03
  3.811639e+01    7.396189e+03
  3.820793e+01    7.324278e+03
  3.829948e+01    7.289234e+03
  3.839102e+01    7.269180e+03
  3.848256e+01    7.274353e+03
  3.857410e+01    7.355920e+03
  3.866564e+01    8.042288e+03
  3.875718e+01    9.291008e+03
  3.884872e+01    7.654030e+03
  3.894027e+01    7.274846e+03
  3.903181e+01    7.207906e+03
  3.912335e+01    7.185006e+03
  3.921489e+01    7.150145e+03
  3.930643e+01    7.138997e+03
  3.939797e+01    7.118197e+03
  3.948951e+01    7.084274e+03
  3.958106e+01    7.057171e+03
  3.967260e+01    7.031008e+03
  3.976414e+01    7.024058e+03
  3.985568e+01    7.307516e+03
  3.994722e+01    7.403794e+03
  4.003876e+01    6.998722e+03
  4.013031e+01    6.949745e+03
  4.022185e+01    6.913575e+03
  4.031339e+01    6.893240e+03
  4.040493e+01    6.883113e+03
  4.049647e+01    6.869769e+03
  4.058801e+01    6.863287e+03
  4.067955e+01    6.872078e+03
  4.077110e+01    6.909592e+03
  4.086264e+01    7.080639e+03
  4.095418e+01    8.397466e+03
  4.104572e+01    1.285856e+04
  4.113726e+01    8.679608e+03
  4.122880e+01    7.067956e+03
  4.132034e+01    6.859133e+03
  4.141189e+01    6.810129e+03
  4.150343e+01    6.772700e+03
  4.159497e+01    6.762612e+03
  4.168651e+01    6.764269e+03
  4.177805e+01    6.746838e+03
  4.186959e+01    6.737710e+03
  4.196113e+01    6.758972e+03
  4.205268e+01    6.950051e+03
  4.214422e+01    7.938142e+03
  4.223576e+01    7.238778e+03
  4.232730e+01    6.772213e+03
  4.241884e+01    6.719527e+03
  4.251038e+01    6.694997e+03
  4.260192e+01    6.688612e+03
  4.269347e+01    6.702471e+03
  4.278501e+01    6.706298e+03
  4.287655e+01    6.742187e+03
  4.296809e+01    6.818608e+03
  4.305963e+01    6.947707e+03
  4.315117e+01    7.965361e+03
  4.324272e+01    1.185544e+04
  4.333426e+01    8.716532e+03
  4.342580e+01    7.612699e+03
  4.351734e+01    9.911281e+03
  4.360888e+01    2.633174e+04
  4.370042e+01    1.471292e+04
  4.379196e+01    7.856358e+03
  4.388351e+01    7.098558e+03
  4.397505e+01    7.002509e+03
  4.406659e+01    7.162288e+03
  4.415813e+01    8.155987e+03
  4.424967e+01    1.708574e+04
  4.434121e+01    2.596575e+04
  4.443275e+01    1.021974e+04
  4.452430e+01    7.361127e+03
  4.461584e+01    6.882964e+03
  4.470738e+01    6.696459e+03
  4.479892e+01    6.624216e+03
  4.489046e+01    6.584583e+03
  4.498200e+01    6.587931e+03
  4.507354e+01    6.604301e+03
  4.516509e+01    6.735249e+03
  4.525663e+01    7.709174e+03
  4.534817e+01    1.224496e+04
  4.543971e+01    8.901989e+03
  4.553125e+01    6.809431e+03
  4.562279e+01    6.515925e+03
  4.571433e+01    6.451881e+03
  4.580588e+01    6.403032e+03
  4.589742e+01    6.369093e+03
  4.598896e+01    6.349731e+03
  4.608050e+01    6.333264e+03
  4.617204e+01    6.352234e+03
  4.626358e+01    6.563796e+03
  4.635513e+01    7.895707e+03
  4.644667e+01    7.432304e+03
  4.653821e+01    6.486804e+03
  4.662975e+01    6.362440e+03
  4.672129e+01    6.354171e+03
  4.681283e+01    6.368933e+03
  4.690437e+01    6.389628e+03
  4.699592e+01    6.438673e+03
  4.708746e+01    6.490574e+03
  4.717900e+01    6.567129e+03
  4.727054e+01    6.771391e+03
  4.736208e+01    7.724148e+03
  4.745362e+01    7.557286e+03
  4.754516e+01    7.171361e+03
  4.763671e+01    7.317710e+03
  4.772825e+01    7.167564e+03
  4.781979e+01    6.832202e+03
  4.788844e+01    2.745099e+03