File: Output/ROCK_XRD/WAM39B_integrated/rampe1/wam39b_rampe_1_xrd_000036_integrated.dat
# == pyFAI calibration ==
# Distance Sample to Detector: 0.261615 m
# PONI: 2.023e-01, 2.348e-01 m
# Rotations: -0.026380 0.002005 0.000000 rad
#
# == Fit2d calibration ==
# Distance Sample-beamCenter: 261.707 mm
# Center: x=6119.331, y=5134.776 pix
# Tilt: 1.516 deg  TiltPlanRot: 4.347 deg
#
# Detector Rayonix SX165	 PixelSize= 3.950e-05, 3.950e-05 m
#    Detector has a mask: True
#    Detector has a dark current: False
#    detector has a flat field: False
#
# Wavelength: 1.12713e-10 m
# Mask applied: from detector
# Dark current applied: False
# Flat field applied: False
# Polarization factor: None
# Normalization factor: 1.0
# --> ROCK\\WAM39B_integrated\wam39b_rampe_1_xrd_000036_integrated.dat
#       2th_deg             I
  2.502596e+01    4.793790e+03
  2.511750e+01    1.962345e+04
  2.520905e+01    1.992460e+04
  2.530059e+01    1.998277e+04
  2.539213e+01    1.945163e+04
  2.548367e+01    1.930165e+04
  2.557521e+01    1.918108e+04
  2.566675e+01    1.908702e+04
  2.575829e+01    1.889036e+04
  2.584984e+01    1.873204e+04
  2.594138e+01    1.883398e+04
  2.603292e+01    1.934706e+04
  2.612446e+01    2.102766e+04
  2.621600e+01    3.050739e+04
  2.630754e+01    6.271673e+04
  2.639908e+01    3.410288e+04
  2.649063e+01    2.092021e+04
  2.658217e+01    1.851605e+04
  2.667371e+01    1.771010e+04
  2.676525e+01    1.730293e+04
  2.685679e+01    1.700358e+04
  2.694833e+01    1.674972e+04
  2.703988e+01    1.656096e+04
  2.713142e+01    1.639125e+04
  2.722296e+01    1.616732e+04
  2.731450e+01    1.600324e+04
  2.740604e+01    1.580381e+04
  2.749758e+01    1.568774e+04
  2.758912e+01    1.560122e+04
  2.768067e+01    1.553505e+04
  2.777221e+01    1.568282e+04
  2.786375e+01    1.742822e+04
  2.795529e+01    1.999077e+04
  2.804683e+01    1.600412e+04
  2.813837e+01    1.490282e+04
  2.822991e+01    1.452965e+04
  2.832146e+01    1.430066e+04
  2.841300e+01    1.410324e+04
  2.850454e+01    1.391502e+04
  2.859608e+01    1.376335e+04
  2.868762e+01    1.355335e+04
  2.877916e+01    1.337413e+04
  2.887070e+01    1.320210e+04
  2.896225e+01    1.300395e+04
  2.905379e+01    1.280394e+04
  2.914533e+01    1.262445e+04
  2.923687e+01    1.249486e+04
  2.932841e+01    1.244917e+04
  2.941995e+01    1.309725e+04
  2.951149e+01    1.366071e+04
  2.960304e+01    1.215333e+04
  2.969458e+01    1.174382e+04
  2.978612e+01    1.158471e+04
  2.987766e+01    1.146820e+04
  2.996920e+01    1.145507e+04
  3.006074e+01    1.149833e+04
  3.015228e+01    1.163608e+04
  3.024383e+01    1.214573e+04
  3.033537e+01    1.482735e+04
  3.042691e+01    3.749608e+04
  3.051845e+01    5.863595e+04
  3.060999e+01    1.844157e+04
  3.070153e+01    1.278264e+04
  3.079308e+01    1.250994e+04
  3.088462e+01    1.838287e+04
  3.097616e+01    2.840927e+04
  3.106770e+01    1.438544e+04
  3.115924e+01    1.115353e+04
  3.125078e+01    1.057931e+04
  3.134232e+01    1.032909e+04
  3.143387e+01    1.019392e+04
  3.152541e+01    1.007337e+04
  3.161695e+01    9.966746e+03
  3.170849e+01    9.886584e+03
  3.180003e+01    9.812571e+03
  3.189157e+01    9.747289e+03
  3.198311e+01    9.685370e+03
  3.207466e+01    9.623278e+03
  3.216620e+01    9.601271e+03
  3.225774e+01    9.747418e+03
  3.234928e+01    1.089681e+04
  3.244082e+01    1.018938e+04
  3.253236e+01    9.423556e+03
  3.262390e+01    9.285384e+03
  3.271545e+01    9.208849e+03
  3.280699e+01    9.141477e+03
  3.289853e+01    9.082967e+03
  3.299007e+01    9.023770e+03
  3.308161e+01    8.988806e+03
  3.317315e+01    8.947825e+03
  3.326469e+01    8.912680e+03
  3.335624e+01    8.908531e+03
  3.344778e+01    8.958618e+03
  3.353932e+01    9.237856e+03
  3.363086e+01    1.146010e+04
  3.372240e+01    2.163630e+04
  3.381394e+01    1.370992e+04
  3.390549e+01    9.322430e+03
  3.399703e+01    8.727466e+03
  3.408857e+01    8.538672e+03
  3.418011e+01    8.431529e+03
  3.427165e+01    8.369273e+03
  3.436319e+01    8.310691e+03
  3.445473e+01    8.238308e+03
  3.454628e+01    8.186801e+03
  3.463782e+01    8.139334e+03
  3.472936e+01    8.093335e+03
  3.482090e+01    8.050632e+03
  3.491244e+01    8.006338e+03
  3.500398e+01    7.965590e+03
  3.509552e+01    7.928462e+03
  3.518707e+01    7.893911e+03
  3.527861e+01    7.859243e+03
  3.537015e+01    7.828383e+03
  3.546169e+01    7.780821e+03
  3.555323e+01    7.740196e+03
  3.564477e+01    7.707676e+03
  3.573631e+01    7.684523e+03
  3.582786e+01    7.682674e+03
  3.591940e+01    7.685723e+03
  3.601094e+01    7.724267e+03
  3.610248e+01    7.825058e+03
  3.619402e+01    8.363677e+03
  3.628556e+01    1.198415e+04
  3.637710e+01    1.072223e+04
  3.646865e+01    8.160259e+03
  3.656019e+01    7.883930e+03
  3.665173e+01    7.822097e+03
  3.674327e+01    7.836155e+03
  3.683481e+01    7.878668e+03
  3.692635e+01    7.935011e+03
  3.701790e+01    8.023516e+03
  3.710944e+01    8.162069e+03
  3.720098e+01    8.439815e+03
  3.729252e+01    9.065227e+03
  3.738406e+01    1.147274e+04
  3.747560e+01    3.244642e+04
  3.756714e+01    6.877636e+04
  3.765869e+01    2.069557e+04
  3.775023e+01    1.037219e+04
  3.784177e+01    8.893240e+03
  3.793331e+01    8.430816e+03
  3.802485e+01    8.196004e+03
  3.811639e+01    8.083603e+03
  3.820793e+01    8.007812e+03
  3.829948e+01    7.968878e+03
  3.839102e+01    7.941261e+03
  3.848256e+01    7.948849e+03
  3.857410e+01    8.019721e+03
  3.866564e+01    8.653278e+03
  3.875718e+01    1.023758e+04
  3.884872e+01    8.459224e+03
  3.894027e+01    7.966526e+03
  3.903181e+01    7.883069e+03
  3.912335e+01    7.854209e+03
  3.921489e+01    7.824105e+03
  3.930643e+01    7.804176e+03
  3.939797e+01    7.782688e+03
  3.948951e+01    7.732410e+03
  3.958106e+01    7.713013e+03
  3.967260e+01    7.684230e+03
  3.976414e+01    7.679831e+03
  3.985568e+01    7.941608e+03
  3.994722e+01    8.140356e+03
  4.003876e+01    7.672794e+03
  4.013031e+01    7.598647e+03
  4.022185e+01    7.563117e+03
  4.031339e+01    7.550306e+03
  4.040493e+01    7.527290e+03
  4.049647e+01    7.510027e+03
  4.058801e+01    7.508200e+03
  4.067955e+01    7.511457e+03
  4.077110e+01    7.545627e+03
  4.086264e+01    7.700673e+03
  4.095418e+01    8.840511e+03
  4.104572e+01    1.398265e+04
  4.113726e+01    9.915563e+03
  4.122880e+01    7.780134e+03
  4.132034e+01    7.510444e+03
  4.141189e+01    7.433309e+03
  4.150343e+01    7.406622e+03
  4.159497e+01    7.399731e+03
  4.168651e+01    7.400443e+03
  4.177805e+01    7.371918e+03
  4.186959e+01    7.373470e+03
  4.196113e+01    7.384041e+03
  4.205268e+01    7.547771e+03
  4.214422e+01    8.598009e+03
  4.223576e+01    8.035307e+03
  4.232730e+01    7.412741e+03
  4.241884e+01    7.346914e+03
  4.251038e+01    7.329956e+03
  4.260192e+01    7.315995e+03
  4.269347e+01    7.324848e+03
  4.278501e+01    7.330668e+03
  4.287655e+01    7.355031e+03
  4.296809e+01    7.443042e+03
  4.305963e+01    7.563144e+03
  4.315117e+01    8.440954e+03
  4.324272e+01    1.279899e+04
  4.333426e+01    9.911562e+03
  4.342580e+01    8.288302e+03
  4.351734e+01    1.024029e+04
  4.360888e+01    2.702938e+04
  4.370042e+01    1.826216e+04
  4.379196e+01    8.779350e+03
  4.388351e+01    7.790088e+03
  4.397505e+01    7.637586e+03
  4.406659e+01    7.784107e+03
  4.415813e+01    8.662896e+03
  4.424967e+01    1.659047e+04
  4.434121e+01    2.983110e+04
  4.443275e+01    1.205806e+04
  4.452430e+01    8.147424e+03
  4.461584e+01    7.559507e+03
  4.470738e+01    7.339040e+03
  4.479892e+01    7.255121e+03
  4.489046e+01    7.207486e+03
  4.498200e+01    7.192937e+03
  4.507354e+01    7.219608e+03
  4.516509e+01    7.335610e+03
  4.525663e+01    8.164837e+03
  4.534817e+01    1.306292e+04
  4.543971e+01    1.029531e+04
  4.553125e+01    7.505201e+03
  4.562279e+01    7.139404e+03
  4.571433e+01    7.055567e+03
  4.580588e+01    7.006296e+03
  4.589742e+01    6.986767e+03
  4.598896e+01    6.954890e+03
  4.608050e+01    6.928333e+03
  4.617204e+01    6.945546e+03
  4.626358e+01    7.127454e+03
  4.635513e+01    8.432700e+03
  4.644667e+01    8.328548e+03
  4.653821e+01    7.132246e+03
  4.662975e+01    6.967745e+03
  4.672129e+01    6.955241e+03
  4.681283e+01    6.966243e+03
  4.690437e+01    6.994507e+03
  4.699592e+01    7.043710e+03
  4.708746e+01    7.115771e+03
  4.717900e+01    7.172675e+03
  4.727054e+01    7.378979e+03
  4.736208e+01    8.321762e+03
  4.745362e+01    8.412017e+03
  4.754516e+01    7.875211e+03
  4.763671e+01    8.014816e+03
  4.772825e+01    7.855108e+03
  4.781979e+01    7.452887e+03
  4.788844e+01    3.003357e+03