File: Output/ROCK_XRD/WAM39B_integrated/rampe1/wam39b_rampe_1_xrd_000001_integrated.dat
# == pyFAI calibration ==
# Distance Sample to Detector: 0.261615 m
# PONI: 2.023e-01, 2.348e-01 m
# Rotations: -0.026380 0.002005 0.000000 rad
#
# == Fit2d calibration ==
# Distance Sample-beamCenter: 261.707 mm
# Center: x=6119.331, y=5134.776 pix
# Tilt: 1.516 deg  TiltPlanRot: 4.347 deg
#
# Detector Rayonix SX165	 PixelSize= 3.950e-05, 3.950e-05 m
#    Detector has a mask: True
#    Detector has a dark current: False
#    detector has a flat field: False
#
# Wavelength: 1.12713e-10 m
# Mask applied: from detector
# Dark current applied: False
# Flat field applied: False
# Polarization factor: None
# Normalization factor: 1.0
# --> ROCK\\WAM39B_integrated\wam39b_rampe_1_xrd_000001_integrated.dat
#       2th_deg             I
  2.502596e+01    4.520526e+03
  2.511750e+01    1.857796e+04
  2.520905e+01    1.891666e+04
  2.530059e+01    1.906661e+04
  2.539213e+01    1.866830e+04
  2.548367e+01    1.883809e+04
  2.557521e+01    1.929731e+04
  2.566675e+01    2.020065e+04
  2.575829e+01    2.099090e+04
  2.584984e+01    2.082008e+04
  2.594138e+01    2.006576e+04
  2.603292e+01    1.970956e+04
  2.612446e+01    1.982231e+04
  2.621600e+01    2.044590e+04
  2.630754e+01    2.159905e+04
  2.639908e+01    2.507128e+04
  2.649063e+01    3.074111e+04
  2.658217e+01    2.416447e+04
  2.667371e+01    2.133904e+04
  2.676525e+01    2.087274e+04
  2.685679e+01    2.057633e+04
  2.694833e+01    1.991518e+04
  2.703988e+01    1.890669e+04
  2.713142e+01    1.785149e+04
  2.722296e+01    1.696651e+04
  2.731450e+01    1.637356e+04
  2.740604e+01    1.593826e+04
  2.749758e+01    1.569921e+04
  2.758912e+01    1.554125e+04
  2.768067e+01    1.546974e+04
  2.777221e+01    1.551655e+04
  2.786375e+01    1.581088e+04
  2.795529e+01    1.652592e+04
  2.804683e+01    1.867795e+04
  2.813837e+01    2.127436e+04
  2.822991e+01    1.742419e+04
  2.832146e+01    1.530631e+04
  2.841300e+01    1.429634e+04
  2.850454e+01    1.373495e+04
  2.859608e+01    1.335049e+04
  2.868762e+01    1.304134e+04
  2.877916e+01    1.278604e+04
  2.887070e+01    1.256053e+04
  2.896225e+01    1.234065e+04
  2.905379e+01    1.213596e+04
  2.914533e+01    1.196465e+04
  2.923687e+01    1.182576e+04
  2.932841e+01    1.167587e+04
  2.941995e+01    1.156552e+04
  2.951149e+01    1.154764e+04
  2.960304e+01    1.205837e+04
  2.969458e+01    1.302398e+04
  2.978612e+01    1.166439e+04
  2.987766e+01    1.108430e+04
  2.996920e+01    1.094673e+04
  3.006074e+01    1.089794e+04
  3.015228e+01    1.088848e+04
  3.024383e+01    1.088815e+04
  3.033537e+01    1.095134e+04
  3.042691e+01    1.106993e+04
  3.051845e+01    1.125673e+04
  3.060999e+01    1.154441e+04
  3.070153e+01    1.198711e+04
  3.079308e+01    1.268450e+04
  3.088462e+01    1.373000e+04
  3.097616e+01    1.538003e+04
  3.106770e+01    1.994698e+04
  3.115924e+01    3.207634e+04
  3.125078e+01    2.280345e+04
  3.134232e+01    1.511557e+04
  3.143387e+01    1.292599e+04
  3.152541e+01    1.181336e+04
  3.161695e+01    1.114369e+04
  3.170849e+01    1.070888e+04
  3.180003e+01    1.041228e+04
  3.189157e+01    1.019998e+04
  3.198311e+01    1.004046e+04
  3.207466e+01    9.895581e+03
  3.216620e+01    9.769214e+03
  3.225774e+01    9.661643e+03
  3.234928e+01    9.575210e+03
  3.244082e+01    9.592057e+03
  3.253236e+01    1.026142e+04
  3.262390e+01    1.075004e+04
  3.271545e+01    9.479105e+03
  3.280699e+01    9.100988e+03
  3.289853e+01    8.968625e+03
  3.299007e+01    8.881699e+03
  3.308161e+01    8.825052e+03
  3.317315e+01    8.773011e+03
  3.326469e+01    8.730422e+03
  3.335624e+01    8.715874e+03
  3.344778e+01    8.719195e+03
  3.353932e+01    8.710551e+03
  3.363086e+01    8.765227e+03
  3.372240e+01    8.991958e+03
  3.381394e+01    1.003633e+04
  3.390549e+01    1.633732e+04
  3.399703e+01    2.023131e+04
  3.408857e+01    1.123585e+04
  3.418011e+01    9.143573e+03
  3.427165e+01    8.750006e+03
  3.436319e+01    8.583988e+03
  3.445473e+01    8.452990e+03
  3.454628e+01    8.326177e+03
  3.463782e+01    8.232259e+03
  3.472936e+01    8.183543e+03
  3.482090e+01    8.158456e+03
  3.491244e+01    8.190159e+03
  3.500398e+01    8.269440e+03
  3.509552e+01    8.368334e+03
  3.518707e+01    8.348246e+03
  3.527861e+01    8.183028e+03
  3.537015e+01    8.009290e+03
  3.546169e+01    7.870254e+03
  3.555323e+01    7.780388e+03
  3.564477e+01    7.687730e+03
  3.573631e+01    7.642401e+03
  3.582786e+01    7.618425e+03
  3.591940e+01    7.593920e+03
  3.601094e+01    7.598172e+03
  3.610248e+01    7.605683e+03
  3.619402e+01    7.635282e+03
  3.628556e+01    7.698808e+03
  3.637710e+01    7.921403e+03
  3.646865e+01    9.142314e+03
  3.656019e+01    1.275273e+04
  3.665173e+01    9.907432e+03
  3.674327e+01    8.093688e+03
  3.683481e+01    7.813065e+03
  3.692635e+01    7.763780e+03
  3.701790e+01    7.769332e+03
  3.710944e+01    7.816761e+03
  3.720098e+01    7.931094e+03
  3.729252e+01    8.071614e+03
  3.738406e+01    8.302621e+03
  3.747560e+01    8.792954e+03
  3.756714e+01    1.003867e+04
  3.765869e+01    1.498995e+04
  3.775023e+01    4.507822e+04
  3.784177e+01    6.274048e+04
  3.793331e+01    2.066043e+04
  3.802485e+01    1.103121e+04
  3.811639e+01    9.130611e+03
  3.820793e+01    8.463915e+03
  3.829948e+01    8.172429e+03
  3.839102e+01    8.026885e+03
  3.848256e+01    7.952405e+03
  3.857410e+01    7.896284e+03
  3.866564e+01    7.841366e+03
  3.875718e+01    7.823719e+03
  3.884872e+01    7.924477e+03
  3.894027e+01    8.787551e+03
  3.903181e+01    1.006665e+04
  3.912335e+01    8.336259e+03
  3.921489e+01    7.763923e+03
  3.930643e+01    7.653233e+03
  3.939797e+01    7.611523e+03
  3.948951e+01    7.566819e+03
  3.958106e+01    7.546508e+03
  3.967260e+01    7.522051e+03
  3.976414e+01    7.500783e+03
  3.985568e+01    7.512850e+03
  3.994722e+01    7.522469e+03
  4.003876e+01    7.552559e+03
  4.013031e+01    7.875725e+03
  4.022185e+01    8.126208e+03
  4.031339e+01    7.747500e+03
  4.040493e+01    7.735846e+03
  4.049647e+01    7.816229e+03
  4.058801e+01    7.816816e+03
  4.067955e+01    7.716522e+03
  4.077110e+01    7.590582e+03
  4.086264e+01    7.510255e+03
  4.095418e+01    7.472303e+03
  4.104572e+01    7.496385e+03
  4.113726e+01    7.705710e+03
  4.122880e+01    8.919294e+03
  4.132034e+01    1.366759e+04
  4.141189e+01    1.111329e+04
  4.150343e+01    8.132653e+03
  4.159497e+01    7.713442e+03
  4.168651e+01    7.664506e+03
  4.177805e+01    7.628843e+03
  4.186959e+01    7.574424e+03
  4.196113e+01    7.520158e+03
  4.205268e+01    7.500398e+03
  4.214422e+01    7.481658e+03
  4.223576e+01    7.514516e+03
  4.232730e+01    7.664009e+03
  4.241884e+01    8.548866e+03
  4.251038e+01    8.488569e+03
  4.260192e+01    7.514234e+03
  4.269347e+01    7.285158e+03
  4.278501e+01    7.203221e+03
  4.287655e+01    7.145353e+03
  4.296809e+01    7.130879e+03
  4.305963e+01    7.120980e+03
  4.315117e+01    7.144280e+03
  4.324272e+01    7.207689e+03
  4.333426e+01    7.374328e+03
  4.342580e+01    8.080768e+03
  4.351734e+01    1.166361e+04
  4.360888e+01    1.151597e+04
  4.370042e+01    8.228758e+03
  4.379196e+01    7.731463e+03
  4.388351e+01    7.818014e+03
  4.397505e+01    7.994439e+03
  4.406659e+01    8.115001e+03
  4.415813e+01    8.304802e+03
  4.424967e+01    8.667390e+03
  4.434121e+01    9.277527e+03
  4.443275e+01    1.047419e+04
  4.452430e+01    1.518002e+04
  4.461584e+01    3.165806e+04
  4.470738e+01    2.163696e+04
  4.479892e+01    1.132799e+04
  4.489046e+01    9.248553e+03
  4.498200e+01    8.456385e+03
  4.507354e+01    8.007875e+03
  4.516509e+01    7.721103e+03
  4.525663e+01    7.558579e+03
  4.534817e+01    7.467667e+03
  4.543971e+01    7.533139e+03
  4.553125e+01    8.035757e+03
  4.562279e+01    1.109765e+04
  4.571433e+01    1.355931e+04
  4.580588e+01    8.852484e+03
  4.589742e+01    7.605017e+03
  4.598896e+01    7.335058e+03
  4.608050e+01    7.236486e+03
  4.617204e+01    7.195681e+03
  4.626358e+01    7.165898e+03
  4.635513e+01    7.136578e+03
  4.644667e+01    7.142847e+03
  4.653821e+01    7.221183e+03
  4.662975e+01    7.783532e+03
  4.672129e+01    9.089415e+03
  4.681283e+01    7.925221e+03
  4.690437e+01    7.362867e+03
  4.699592e+01    7.324292e+03
  4.708746e+01    7.368415e+03
  4.717900e+01    7.340068e+03
  4.727054e+01    7.277769e+03
  4.736208e+01    7.256672e+03
  4.745362e+01    7.360222e+03
  4.754516e+01    7.636845e+03
  4.763671e+01    8.202828e+03
  4.772825e+01    8.985053e+03
  4.781979e+01    7.802159e+03
  4.788844e+01    2.997235e+03