File: Output/ROCK_XRD/WAM39B_integrated/rampe1/wam39b_rampe_1_xrd_000005_integrated.dat
# == pyFAI calibration ==
# Distance Sample to Detector: 0.261615 m
# PONI: 2.023e-01, 2.348e-01 m
# Rotations: -0.026380 0.002005 0.000000 rad
#
# == Fit2d calibration ==
# Distance Sample-beamCenter: 261.707 mm
# Center: x=6119.331, y=5134.776 pix
# Tilt: 1.516 deg  TiltPlanRot: 4.347 deg
#
# Detector Rayonix SX165	 PixelSize= 3.950e-05, 3.950e-05 m
#    Detector has a mask: True
#    Detector has a dark current: False
#    detector has a flat field: False
#
# Wavelength: 1.12713e-10 m
# Mask applied: from detector
# Dark current applied: False
# Flat field applied: False
# Polarization factor: None
# Normalization factor: 1.0
# --> ROCK\\WAM39B_integrated\wam39b_rampe_1_xrd_000005_integrated.dat
#       2th_deg             I
  2.502596e+01    4.481287e+03
  2.511750e+01    1.841871e+04
  2.520905e+01    1.873832e+04
  2.530059e+01    1.887287e+04
  2.539213e+01    1.853755e+04
  2.548367e+01    1.874624e+04
  2.557521e+01    1.934218e+04
  2.566675e+01    2.034183e+04
  2.575829e+01    2.088962e+04
  2.584984e+01    2.046915e+04
  2.594138e+01    1.972368e+04
  2.603292e+01    1.952255e+04
  2.612446e+01    1.976530e+04
  2.621600e+01    2.054457e+04
  2.630754e+01    2.209075e+04
  2.639908e+01    2.727289e+04
  2.649063e+01    2.961264e+04
  2.658217e+01    2.281127e+04
  2.667371e+01    2.119218e+04
  2.676525e+01    2.080587e+04
  2.685679e+01    2.028535e+04
  2.694833e+01    1.936888e+04
  2.703988e+01    1.826447e+04
  2.713142e+01    1.730017e+04
  2.722296e+01    1.655812e+04
  2.731450e+01    1.605199e+04
  2.740604e+01    1.568219e+04
  2.749758e+01    1.549761e+04
  2.758912e+01    1.538581e+04
  2.768067e+01    1.536589e+04
  2.777221e+01    1.551035e+04
  2.786375e+01    1.595342e+04
  2.795529e+01    1.700149e+04
  2.804683e+01    1.989296e+04
  2.813837e+01    2.012066e+04
  2.822991e+01    1.621286e+04
  2.832146e+01    1.470856e+04
  2.841300e+01    1.391085e+04
  2.850454e+01    1.345980e+04
  2.859608e+01    1.311290e+04
  2.868762e+01    1.281348e+04
  2.877916e+01    1.258412e+04
  2.887070e+01    1.237982e+04
  2.896225e+01    1.217966e+04
  2.905379e+01    1.198528e+04
  2.914533e+01    1.181477e+04
  2.923687e+01    1.167404e+04
  2.932841e+01    1.154323e+04
  2.941995e+01    1.144057e+04
  2.951149e+01    1.151069e+04
  2.960304e+01    1.241020e+04
  2.969458e+01    1.255380e+04
  2.978612e+01    1.126998e+04
  2.987766e+01    1.092199e+04
  2.996920e+01    1.083285e+04
  3.006074e+01    1.080313e+04
  3.015228e+01    1.081097e+04
  3.024383e+01    1.082532e+04
  3.033537e+01    1.091673e+04
  3.042691e+01    1.107362e+04
  3.051845e+01    1.131166e+04
  3.060999e+01    1.167301e+04
  3.070153e+01    1.226227e+04
  3.079308e+01    1.312663e+04
  3.088462e+01    1.436858e+04
  3.097616e+01    1.644858e+04
  3.106770e+01    2.387636e+04
  3.115924e+01    3.139138e+04
  3.125078e+01    1.832775e+04
  3.134232e+01    1.369614e+04
  3.143387e+01    1.213650e+04
  3.152541e+01    1.130250e+04
  3.161695e+01    1.078793e+04
  3.170849e+01    1.044197e+04
  3.180003e+01    1.020055e+04
  3.189157e+01    1.002355e+04
  3.198311e+01    9.868166e+03
  3.207466e+01    9.738441e+03
  3.216620e+01    9.621738e+03
  3.225774e+01    9.521647e+03
  3.234928e+01    9.454915e+03
  3.244082e+01    9.605937e+03
  3.253236e+01    1.062770e+04
  3.262390e+01    1.011886e+04
  3.271545e+01    9.174726e+03
  3.280699e+01    8.950235e+03
  3.289853e+01    8.849105e+03
  3.299007e+01    8.776200e+03
  3.308161e+01    8.713028e+03
  3.317315e+01    8.673627e+03
  3.326469e+01    8.648142e+03
  3.335624e+01    8.639293e+03
  3.344778e+01    8.628866e+03
  3.353932e+01    8.646384e+03
  3.363086e+01    8.735331e+03
  3.372240e+01    9.127919e+03
  3.381394e+01    1.121033e+04
  3.390549e+01    2.019192e+04
  3.399703e+01    1.599394e+04
  3.408857e+01    9.845849e+03
  3.418011e+01    8.834415e+03
  3.427165e+01    8.594005e+03
  3.436319e+01    8.462111e+03
  3.445473e+01    8.332396e+03
  3.454628e+01    8.226859e+03
  3.463782e+01    8.140448e+03
  3.472936e+01    8.084912e+03
  3.482090e+01    8.071332e+03
  3.491244e+01    8.108319e+03
  3.500398e+01    8.198918e+03
  3.509552e+01    8.299367e+03
  3.518707e+01    8.254953e+03
  3.527861e+01    8.080720e+03
  3.537015e+01    7.904566e+03
  3.546169e+01    7.781290e+03
  3.555323e+01    7.689766e+03
  3.564477e+01    7.606441e+03
  3.573631e+01    7.572546e+03
  3.582786e+01    7.547073e+03
  3.591940e+01    7.531957e+03
  3.601094e+01    7.527273e+03
  3.610248e+01    7.541072e+03
  3.619402e+01    7.584253e+03
  3.628556e+01    7.684139e+03
  3.637710e+01    8.097337e+03
  3.646865e+01    1.056594e+04
  3.656019e+01    1.220037e+04
  3.665173e+01    8.652570e+03
  3.674327e+01    7.848763e+03
  3.683481e+01    7.721940e+03
  3.692635e+01    7.711710e+03
  3.701790e+01    7.729268e+03
  3.710944e+01    7.785660e+03
  3.720098e+01    7.925430e+03
  3.729252e+01    8.095763e+03
  3.738406e+01    8.411980e+03
  3.747560e+01    9.106171e+03
  3.756714e+01    1.115267e+04
  3.765869e+01    2.200433e+04
  3.775023e+01    6.533612e+04
  3.784177e+01    4.095487e+04
  3.793331e+01    1.419700e+04
  3.802485e+01    9.841337e+03
  3.811639e+01    8.718759e+03
  3.820793e+01    8.262855e+03
  3.829948e+01    8.053956e+03
  3.839102e+01    7.946385e+03
  3.848256e+01    7.880344e+03
  3.857410e+01    7.824912e+03
  3.866564e+01    7.778684e+03
  3.875718e+01    7.793896e+03
  3.884872e+01    8.060451e+03
  3.894027e+01    9.613773e+03
  3.903181e+01    9.276374e+03
  3.912335e+01    7.909733e+03
  3.921489e+01    7.654536e+03
  3.930643e+01    7.589154e+03
  3.939797e+01    7.556770e+03
  3.948951e+01    7.523902e+03
  3.958106e+01    7.498202e+03
  3.967260e+01    7.487125e+03
  3.976414e+01    7.460763e+03
  3.985568e+01    7.468577e+03
  3.994722e+01    7.491238e+03
  4.003876e+01    7.587366e+03
  4.013031e+01    8.069224e+03
  4.022185e+01    7.854351e+03
  4.031339e+01    7.658780e+03
  4.040493e+01    7.718288e+03
  4.049647e+01    7.782828e+03
  4.058801e+01    7.737948e+03
  4.067955e+01    7.631091e+03
  4.077110e+01    7.528681e+03
  4.086264e+01    7.462029e+03
  4.095418e+01    7.450447e+03
  4.104572e+01    7.533814e+03
  4.113726e+01    7.981082e+03
  4.122880e+01    1.081892e+04
  4.132034e+01    1.363472e+04
  4.141189e+01    9.012353e+03
  4.150343e+01    7.823953e+03
  4.159497e+01    7.658077e+03
  4.168651e+01    7.616657e+03
  4.177805e+01    7.533812e+03
  4.186959e+01    7.471532e+03
  4.196113e+01    7.444992e+03
  4.205268e+01    7.436205e+03
  4.214422e+01    7.442911e+03
  4.223576e+01    7.513592e+03
  4.232730e+01    7.908066e+03
  4.241884e+01    8.817760e+03
  4.251038e+01    7.820015e+03
  4.260192e+01    7.328842e+03
  4.269347e+01    7.209635e+03
  4.278501e+01    7.154348e+03
  4.287655e+01    7.112632e+03
  4.296809e+01    7.104327e+03
  4.305963e+01    7.108488e+03
  4.315117e+01    7.145559e+03
  4.324272e+01    7.246432e+03
  4.333426e+01    7.552527e+03
  4.342580e+01    9.283225e+03
  4.351734e+01    1.286020e+04
  4.360888e+01    9.252271e+03
  4.370042e+01    7.823296e+03
  4.379196e+01    7.723839e+03
  4.388351e+01    7.910464e+03
  4.397505e+01    8.088122e+03
  4.406659e+01    8.257124e+03
  4.415813e+01    8.545279e+03
  4.424967e+01    9.021171e+03
  4.434121e+01    9.817366e+03
  4.443275e+01    1.188750e+04
  4.452430e+01    2.291677e+04
  4.461584e+01    3.027157e+04
  4.470738e+01    1.395796e+04
  4.479892e+01    9.708113e+03
  4.489046e+01    8.591642e+03
  4.498200e+01    8.085534e+03
  4.507354e+01    7.769075e+03
  4.516509e+01    7.566273e+03
  4.525663e+01    7.442250e+03
  4.534817e+01    7.443909e+03
  4.543971e+01    7.634675e+03
  4.553125e+01    8.965977e+03
  4.562279e+01    1.369514e+04
  4.571433e+01    1.070542e+04
  4.580588e+01    7.877097e+03
  4.589742e+01    7.383382e+03
  4.598896e+01    7.246766e+03
  4.608050e+01    7.183321e+03
  4.617204e+01    7.156776e+03
  4.626358e+01    7.134311e+03
  4.635513e+01    7.106839e+03
  4.644667e+01    7.127636e+03
  4.653821e+01    7.365223e+03
  4.662975e+01    8.609731e+03
  4.672129e+01    8.563090e+03
  4.681283e+01    7.444389e+03
  4.690437e+01    7.251747e+03
  4.699592e+01    7.281509e+03
  4.708746e+01    7.304687e+03
  4.717900e+01    7.234407e+03
  4.727054e+01    7.204847e+03
  4.736208e+01    7.207298e+03
  4.745362e+01    7.326704e+03
  4.754516e+01    7.735276e+03
  4.763671e+01    8.792549e+03
  4.772825e+01    8.629213e+03
  4.781979e+01    7.453688e+03
  4.788844e+01    2.972344e+03