File: Output/ROCK_XRD/WAM39B_integrated/rampe1/wam39b_rampe_1_xrd_000026_integrated.dat
# == pyFAI calibration ==
# Distance Sample to Detector: 0.261615 m
# PONI: 2.023e-01, 2.348e-01 m
# Rotations: -0.026380 0.002005 0.000000 rad
#
# == Fit2d calibration ==
# Distance Sample-beamCenter: 261.707 mm
# Center: x=6119.331, y=5134.776 pix
# Tilt: 1.516 deg  TiltPlanRot: 4.347 deg
#
# Detector Rayonix SX165	 PixelSize= 3.950e-05, 3.950e-05 m
#    Detector has a mask: True
#    Detector has a dark current: False
#    detector has a flat field: False
#
# Wavelength: 1.12713e-10 m
# Mask applied: from detector
# Dark current applied: False
# Flat field applied: False
# Polarization factor: None
# Normalization factor: 1.0
# --> ROCK\\WAM39B_integrated\wam39b_rampe_1_xrd_000026_integrated.dat
#       2th_deg             I
  2.502596e+01    4.459494e+03
  2.511750e+01    1.832258e+04
  2.520905e+01    1.862040e+04
  2.530059e+01    1.874654e+04
  2.539213e+01    1.827674e+04
  2.548367e+01    1.831100e+04
  2.557521e+01    1.866589e+04
  2.566675e+01    1.883219e+04
  2.575829e+01    1.888222e+04
  2.584984e+01    1.798996e+04
  2.594138e+01    1.788400e+04
  2.603292e+01    1.827960e+04
  2.612446e+01    1.945023e+04
  2.621600e+01    2.388214e+04
  2.630754e+01    3.930886e+04
  2.639908e+01    4.701248e+04
  2.649063e+01    2.627702e+04
  2.658217e+01    1.933868e+04
  2.667371e+01    1.736913e+04
  2.676525e+01    1.660683e+04
  2.685679e+01    1.618051e+04
  2.694833e+01    1.587923e+04
  2.703988e+01    1.564387e+04
  2.713142e+01    1.546033e+04
  2.722296e+01    1.526265e+04
  2.731450e+01    1.510332e+04
  2.740604e+01    1.493598e+04
  2.749758e+01    1.482462e+04
  2.758912e+01    1.474224e+04
  2.768067e+01    1.475824e+04
  2.777221e+01    1.507597e+04
  2.786375e+01    1.687075e+04
  2.795529e+01    2.039988e+04
  2.804683e+01    1.650404e+04
  2.813837e+01    1.439906e+04
  2.822991e+01    1.384543e+04
  2.832146e+01    1.357837e+04
  2.841300e+01    1.334617e+04
  2.850454e+01    1.318633e+04
  2.859608e+01    1.302965e+04
  2.868762e+01    1.283805e+04
  2.877916e+01    1.268309e+04
  2.887070e+01    1.251395e+04
  2.896225e+01    1.232777e+04
  2.905379e+01    1.214961e+04
  2.914533e+01    1.199802e+04
  2.923687e+01    1.189435e+04
  2.932841e+01    1.183725e+04
  2.941995e+01    1.223027e+04
  2.951149e+01    1.314528e+04
  2.960304e+01    1.187745e+04
  2.969458e+01    1.129262e+04
  2.978612e+01    1.112990e+04
  2.987766e+01    1.102558e+04
  2.996920e+01    1.100709e+04
  3.006074e+01    1.106346e+04
  3.015228e+01    1.119879e+04
  3.024383e+01    1.155226e+04
  3.033537e+01    1.262064e+04
  3.042691e+01    1.689843e+04
  3.051845e+01    3.688955e+04
  3.060999e+01    4.309909e+04
  3.070153e+01    1.912294e+04
  3.079308e+01    1.412296e+04
  3.088462e+01    1.648829e+04
  3.097616e+01    2.724706e+04
  3.106770e+01    1.723052e+04
  3.115924e+01    1.151480e+04
  3.125078e+01    1.045779e+04
  3.134232e+01    1.008861e+04
  3.143387e+01    9.897715e+03
  3.152541e+01    9.738090e+03
  3.161695e+01    9.630054e+03
  3.170849e+01    9.541921e+03
  3.180003e+01    9.448357e+03
  3.189157e+01    9.378817e+03
  3.198311e+01    9.321255e+03
  3.207466e+01    9.263816e+03
  3.216620e+01    9.236637e+03
  3.225774e+01    9.329089e+03
  3.234928e+01    1.012192e+04
  3.244082e+01    1.020072e+04
  3.253236e+01    9.202166e+03
  3.262390e+01    8.964751e+03
  3.271545e+01    8.873382e+03
  3.280699e+01    8.805148e+03
  3.289853e+01    8.759397e+03
  3.299007e+01    8.699747e+03
  3.308161e+01    8.653354e+03
  3.317315e+01    8.625486e+03
  3.326469e+01    8.626966e+03
  3.335624e+01    8.623273e+03
  3.344778e+01    8.677626e+03
  3.353932e+01    8.933004e+03
  3.363086e+01    1.037114e+04
  3.372240e+01    1.807212e+04
  3.381394e+01    1.657152e+04
  3.390549e+01    9.804472e+03
  3.399703e+01    8.639368e+03
  3.408857e+01    8.350849e+03
  3.418011e+01    8.240916e+03
  3.427165e+01    8.146711e+03
  3.436319e+01    8.068800e+03
  3.445473e+01    7.998812e+03
  3.454628e+01    7.953549e+03
  3.463782e+01    7.927226e+03
  3.472936e+01    8.030149e+03
  3.482090e+01    8.204275e+03
  3.491244e+01    7.944142e+03
  3.500398e+01    7.759532e+03
  3.509552e+01    7.706285e+03
  3.518707e+01    7.660753e+03
  3.527861e+01    7.614702e+03
  3.537015e+01    7.573930e+03
  3.546169e+01    7.545114e+03
  3.555323e+01    7.511995e+03
  3.564477e+01    7.481232e+03
  3.573631e+01    7.468986e+03
  3.582786e+01    7.465281e+03
  3.591940e+01    7.480270e+03
  3.601094e+01    7.515376e+03
  3.610248e+01    7.605785e+03
  3.619402e+01    7.990297e+03
  3.628556e+01    1.027284e+04
  3.637710e+01    1.164709e+04
  3.646865e+01    8.418278e+03
  3.656019e+01    7.774388e+03
  3.665173e+01    7.644170e+03
  3.674327e+01    7.658765e+03
  3.683481e+01    7.683675e+03
  3.692635e+01    7.731884e+03
  3.701790e+01    7.829936e+03
  3.710944e+01    8.019260e+03
  3.720098e+01    8.307053e+03
  3.729252e+01    8.911289e+03
  3.738406e+01    1.089334e+04
  3.747560e+01    2.269923e+04
  3.756714e+01    6.363935e+04
  3.765869e+01    3.365904e+04
  3.775023e+01    1.253425e+04
  3.784177e+01    9.352248e+03
  3.793331e+01    8.504087e+03
  3.802485e+01    8.117349e+03
  3.811639e+01    7.942563e+03
  3.820793e+01    7.823653e+03
  3.829948e+01    7.771833e+03
  3.839102e+01    7.745671e+03
  3.848256e+01    7.805647e+03
  3.857410e+01    7.875348e+03
  3.866564e+01    8.145740e+03
  3.875718e+01    9.651058e+03
  3.884872e+01    8.783502e+03
  3.894027e+01    7.807292e+03
  3.903181e+01    7.649145e+03
  3.912335e+01    7.598043e+03
  3.921489e+01    7.567969e+03
  3.930643e+01    7.520168e+03
  3.939797e+01    7.503937e+03
  3.948951e+01    7.473245e+03
  3.958106e+01    7.449232e+03
  3.967260e+01    7.430736e+03
  3.976414e+01    7.408668e+03
  3.985568e+01    7.554346e+03
  3.994722e+01    7.898798e+03
  4.003876e+01    7.528309e+03
  4.013031e+01    7.365013e+03
  4.022185e+01    7.326893e+03
  4.031339e+01    7.346026e+03
  4.040493e+01    7.322030e+03
  4.049647e+01    7.280370e+03
  4.058801e+01    7.257507e+03
  4.067955e+01    7.270131e+03
  4.077110e+01    7.312264e+03
  4.086264e+01    7.443495e+03
  4.095418e+01    8.109813e+03
  4.104572e+01    1.187931e+04
  4.113726e+01    1.159882e+04
  4.122880e+01    8.077052e+03
  4.132034e+01    7.546102e+03
  4.141189e+01    7.299687e+03
  4.150343e+01    7.197324e+03
  4.159497e+01    7.172573e+03
  4.168651e+01    7.167615e+03
  4.177805e+01    7.129057e+03
  4.186959e+01    7.131939e+03
  4.196113e+01    7.145902e+03
  4.205268e+01    7.244463e+03
  4.214422e+01    7.902739e+03
  4.223576e+01    8.192249e+03
  4.232730e+01    7.309957e+03
  4.241884e+01    7.135374e+03
  4.251038e+01    7.093500e+03
  4.260192e+01    7.081191e+03
  4.269347e+01    7.092470e+03
  4.278501e+01    7.103129e+03
  4.287655e+01    7.118236e+03
  4.296809e+01    7.176639e+03
  4.305963e+01    7.312646e+03
  4.315117e+01    7.843796e+03
  4.324272e+01    1.086042e+04
  4.333426e+01    1.135405e+04
  4.342580e+01    8.302765e+03
  4.351734e+01    8.150783e+03
  4.360888e+01    9.703948e+03
  4.370042e+01    1.798913e+04
  4.379196e+01    2.135978e+04
  4.388351e+01    1.090766e+04
  4.397505e+01    8.465600e+03
  4.406659e+01    7.995731e+03
  4.415813e+01    8.451786e+03
  4.424967e+01    1.237078e+04
  4.434121e+01    2.750496e+04
  4.443275e+01    1.791604e+04
  4.452430e+01    9.072548e+03
  4.461584e+01    7.689634e+03
  4.470738e+01    7.303729e+03
  4.479892e+01    7.144299e+03
  4.489046e+01    7.037213e+03
  4.498200e+01    7.006573e+03
  4.507354e+01    7.020614e+03
  4.516509e+01    7.102240e+03
  4.525663e+01    7.588267e+03
  4.534817e+01    1.063343e+04
  4.543971e+01    1.203652e+04
  4.553125e+01    7.964941e+03
  4.562279e+01    7.060928e+03
  4.571433e+01    6.878516e+03
  4.580588e+01    6.811351e+03
  4.589742e+01    6.764854e+03
  4.598896e+01    6.740705e+03
  4.608050e+01    6.706582e+03
  4.617204e+01    6.718733e+03
  4.626358e+01    6.821778e+03
  4.635513e+01    7.513570e+03
  4.644667e+01    8.533265e+03
  4.653821e+01    7.310473e+03
  4.662975e+01    6.978688e+03
  4.672129e+01    6.860294e+03
  4.681283e+01    6.878139e+03
  4.690437e+01    6.818929e+03
  4.699592e+01    6.810240e+03
  4.708746e+01    6.861693e+03
  4.717900e+01    6.915323e+03
  4.727054e+01    7.054331e+03
  4.736208e+01    7.587168e+03
  4.745362e+01    8.416490e+03
  4.754516e+01    7.781091e+03
  4.763671e+01    7.715374e+03
  4.772825e+01    7.529408e+03
  4.781979e+01    7.183056e+03
  4.788844e+01    2.913144e+03