File: Output/ROCK_XRD/WAM39B_integrated/rampe1/wam39b_rampe_1_xrd_000004_integrated.dat
# == pyFAI calibration ==
# Distance Sample to Detector: 0.261615 m
# PONI: 2.023e-01, 2.348e-01 m
# Rotations: -0.026380 0.002005 0.000000 rad
#
# == Fit2d calibration ==
# Distance Sample-beamCenter: 261.707 mm
# Center: x=6119.331, y=5134.776 pix
# Tilt: 1.516 deg  TiltPlanRot: 4.347 deg
#
# Detector Rayonix SX165	 PixelSize= 3.950e-05, 3.950e-05 m
#    Detector has a mask: True
#    Detector has a dark current: False
#    detector has a flat field: False
#
# Wavelength: 1.12713e-10 m
# Mask applied: from detector
# Dark current applied: False
# Flat field applied: False
# Polarization factor: None
# Normalization factor: 1.0
# --> ROCK\\WAM39B_integrated\wam39b_rampe_1_xrd_000004_integrated.dat
#       2th_deg             I
  2.502596e+01    4.818927e+03
  2.511750e+01    1.983081e+04
  2.520905e+01    2.018664e+04
  2.530059e+01    2.034731e+04
  2.539213e+01    1.994615e+04
  2.548367e+01    2.013759e+04
  2.557521e+01    2.067122e+04
  2.566675e+01    2.170631e+04
  2.575829e+01    2.239345e+04
  2.584984e+01    2.212507e+04
  2.594138e+01    2.130021e+04
  2.603292e+01    2.097687e+04
  2.612446e+01    2.116795e+04
  2.621600e+01    2.192539e+04
  2.630754e+01    2.330596e+04
  2.639908e+01    2.782602e+04
  2.649063e+01    3.264200e+04
  2.658217e+01    2.514398e+04
  2.667371e+01    2.281514e+04
  2.676525e+01    2.234894e+04
  2.685679e+01    2.189771e+04
  2.694833e+01    2.104327e+04
  2.703988e+01    1.987745e+04
  2.713142e+01    1.880937e+04
  2.722296e+01    1.793660e+04
  2.731450e+01    1.735778e+04
  2.740604e+01    1.694567e+04
  2.749758e+01    1.672983e+04
  2.758912e+01    1.658370e+04
  2.768067e+01    1.652311e+04
  2.777221e+01    1.661697e+04
  2.786375e+01    1.701708e+04
  2.795529e+01    1.794573e+04
  2.804683e+01    2.057759e+04
  2.813837e+01    2.231964e+04
  2.822991e+01    1.796239e+04
  2.832146e+01    1.604735e+04
  2.841300e+01    1.510540e+04
  2.850454e+01    1.455062e+04
  2.859608e+01    1.417408e+04
  2.868762e+01    1.385316e+04
  2.877916e+01    1.359237e+04
  2.887070e+01    1.336975e+04
  2.896225e+01    1.314119e+04
  2.905379e+01    1.293458e+04
  2.914533e+01    1.273255e+04
  2.923687e+01    1.258946e+04
  2.932841e+01    1.243089e+04
  2.941995e+01    1.232853e+04
  2.951149e+01    1.232806e+04
  2.960304e+01    1.306919e+04
  2.969458e+01    1.377940e+04
  2.978612e+01    1.226791e+04
  2.987766e+01    1.178787e+04
  2.996920e+01    1.167001e+04
  3.006074e+01    1.163178e+04
  3.015228e+01    1.162402e+04
  3.024383e+01    1.163578e+04
  3.033537e+01    1.170916e+04
  3.042691e+01    1.186657e+04
  3.051845e+01    1.209260e+04
  3.060999e+01    1.244117e+04
  3.070153e+01    1.298353e+04
  3.079308e+01    1.382586e+04
  3.088462e+01    1.503632e+04
  3.097616e+01    1.699229e+04
  3.106770e+01    2.300096e+04
  3.115924e+01    3.462469e+04
  3.125078e+01    2.193248e+04
  3.134232e+01    1.534324e+04
  3.143387e+01    1.336601e+04
  3.152541e+01    1.233625e+04
  3.161695e+01    1.171867e+04
  3.170849e+01    1.132675e+04
  3.180003e+01    1.104597e+04
  3.189157e+01    1.083114e+04
  3.198311e+01    1.066059e+04
  3.207466e+01    1.051812e+04
  3.216620e+01    1.038585e+04
  3.225774e+01    1.027257e+04
  3.234928e+01    1.018652e+04
  3.244082e+01    1.025394e+04
  3.253236e+01    1.117041e+04
  3.262390e+01    1.121754e+04
  3.271545e+01    9.992953e+03
  3.280699e+01    9.668281e+03
  3.289853e+01    9.554396e+03
  3.299007e+01    9.459436e+03
  3.308161e+01    9.399425e+03
  3.317315e+01    9.349224e+03
  3.326469e+01    9.307651e+03
  3.335624e+01    9.298721e+03
  3.344778e+01    9.293468e+03
  3.353932e+01    9.283674e+03
  3.363086e+01    9.373420e+03
  3.372240e+01    9.672465e+03
  3.381394e+01    1.116049e+04
  3.390549e+01    1.941657e+04
  3.399703e+01    1.974136e+04
  3.408857e+01    1.122951e+04
  3.418011e+01    9.627654e+03
  3.427165e+01    9.279720e+03
  3.436319e+01    9.124898e+03
  3.445473e+01    8.989738e+03
  3.454628e+01    8.876067e+03
  3.463782e+01    8.769302e+03
  3.472936e+01    8.716292e+03
  3.482090e+01    8.693413e+03
  3.491244e+01    8.719119e+03
  3.500398e+01    8.805424e+03
  3.509552e+01    8.913050e+03
  3.518707e+01    8.895341e+03
  3.527861e+01    8.726410e+03
  3.537015e+01    8.542019e+03
  3.546169e+01    8.391134e+03
  3.555323e+01    8.283042e+03
  3.564477e+01    8.195748e+03
  3.573631e+01    8.156771e+03
  3.582786e+01    8.117293e+03
  3.591940e+01    8.100410e+03
  3.601094e+01    8.095719e+03
  3.610248e+01    8.112795e+03
  3.619402e+01    8.146416e+03
  3.628556e+01    8.231512e+03
  3.637710e+01    8.540062e+03
  3.646865e+01    1.035511e+04
  3.656019e+01    1.363840e+04
  3.665173e+01    9.893828e+03
  3.674327e+01    8.530939e+03
  3.683481e+01    8.325684e+03
  3.692635e+01    8.289423e+03
  3.701790e+01    8.307519e+03
  3.710944e+01    8.360191e+03
  3.720098e+01    8.489934e+03
  3.729252e+01    8.665185e+03
  3.738406e+01    8.936688e+03
  3.747560e+01    9.541781e+03
  3.756714e+01    1.117433e+04
  3.765869e+01    1.851512e+04
  3.775023e+01    5.886821e+04
  3.784177e+01    5.730687e+04
  3.793331e+01    1.826995e+04
  3.802485e+01    1.115520e+04
  3.811639e+01    9.573934e+03
  3.820793e+01    8.967651e+03
  3.829948e+01    8.700632e+03
  3.839102e+01    8.564896e+03
  3.848256e+01    8.481720e+03
  3.857410e+01    8.425037e+03
  3.866564e+01    8.371011e+03
  3.875718e+01    8.369876e+03
  3.884872e+01    8.526586e+03
  3.894027e+01    9.795070e+03
  3.903181e+01    1.048118e+04
  3.912335e+01    8.686151e+03
  3.921489e+01    8.255183e+03
  3.930643e+01    8.173595e+03
  3.939797e+01    8.132738e+03
  3.948951e+01    8.093792e+03
  3.958106e+01    8.073744e+03
  3.967260e+01    8.043784e+03
  3.976414e+01    8.024123e+03
  3.985568e+01    8.028459e+03
  3.994722e+01    8.040239e+03
  4.003876e+01    8.103393e+03
  4.013031e+01    8.546227e+03
  4.022185e+01    8.576896e+03
  4.031339e+01    8.242621e+03
  4.040493e+01    8.268971e+03
  4.049647e+01    8.351361e+03
  4.058801e+01    8.334191e+03
  4.067955e+01    8.229634e+03
  4.077110e+01    8.110067e+03
  4.086264e+01    8.024173e+03
  4.095418e+01    7.988670e+03
  4.104572e+01    8.056872e+03
  4.113726e+01    8.351629e+03
  4.122880e+01    1.026895e+04
  4.132034e+01    1.501020e+04
  4.141189e+01    1.068815e+04
  4.150343e+01    8.529841e+03
  4.159497e+01    8.234040e+03
  4.168651e+01    8.197994e+03
  4.177805e+01    8.138293e+03
  4.186959e+01    8.048751e+03
  4.196113e+01    8.009311e+03
  4.205268e+01    8.000153e+03
  4.214422e+01    7.990852e+03
  4.223576e+01    8.044625e+03
  4.232730e+01    8.285409e+03
  4.241884e+01    9.363478e+03
  4.251038e+01    8.745322e+03
  4.260192e+01    7.943215e+03
  4.269347e+01    7.769736e+03
  4.278501e+01    7.693602e+03
  4.287655e+01    7.644457e+03
  4.296809e+01    7.635701e+03
  4.305963e+01    7.628096e+03
  4.315117e+01    7.666394e+03
  4.324272e+01    7.736100e+03
  4.333426e+01    7.965115e+03
  4.342580e+01    9.071917e+03
  4.351734e+01    1.338186e+04
  4.360888e+01    1.115758e+04
  4.370042e+01    8.554570e+03
  4.379196e+01    8.274958e+03
  4.388351e+01    8.424494e+03
  4.397505e+01    8.627377e+03
  4.406659e+01    8.781409e+03
  4.415813e+01    9.025815e+03
  4.424967e+01    9.475899e+03
  4.434121e+01    1.019570e+04
  4.443275e+01    1.175910e+04
  4.452430e+01    1.916057e+04
  4.461584e+01    3.479177e+04
  4.470738e+01    1.868505e+04
  4.479892e+01    1.113423e+04
  4.489046e+01    9.505636e+03
  4.498200e+01    8.831763e+03
  4.507354e+01    8.434532e+03
  4.516509e+01    8.185541e+03
  4.525663e+01    8.033846e+03
  4.534817e+01    7.985449e+03
  4.543971e+01    8.100816e+03
  4.553125e+01    8.906839e+03
  4.562279e+01    1.327329e+04
  4.571433e+01    1.324695e+04
  4.580588e+01    8.885538e+03
  4.589742e+01    8.017090e+03
  4.598896e+01    7.814344e+03
  4.608050e+01    7.728491e+03
  4.617204e+01    7.679636e+03
  4.626358e+01    7.667771e+03
  4.635513e+01    7.638039e+03
  4.644667e+01    7.648398e+03
  4.653821e+01    7.787056e+03
  4.662975e+01    8.679433e+03
  4.672129e+01    9.595821e+03
  4.681283e+01    8.199079e+03
  4.690437e+01    7.817763e+03
  4.699592e+01    7.801675e+03
  4.708746e+01    7.857581e+03
  4.717900e+01    7.814112e+03
  4.727054e+01    7.764878e+03
  4.736208e+01    7.754726e+03
  4.745362e+01    7.873745e+03
  4.754516e+01    8.205760e+03
  4.763671e+01    9.028562e+03
  4.772825e+01    9.546062e+03
  4.781979e+01    8.143478e+03
  4.788844e+01    3.198018e+03