File: Output/ROCK_XRD/WAM39B_integrated/rampe1/wam39b_rampe_1_xrd_000028_integrated.dat
# == pyFAI calibration ==
# Distance Sample to Detector: 0.261615 m
# PONI: 2.023e-01, 2.348e-01 m
# Rotations: -0.026380 0.002005 0.000000 rad
#
# == Fit2d calibration ==
# Distance Sample-beamCenter: 261.707 mm
# Center: x=6119.331, y=5134.776 pix
# Tilt: 1.516 deg  TiltPlanRot: 4.347 deg
#
# Detector Rayonix SX165	 PixelSize= 3.950e-05, 3.950e-05 m
#    Detector has a mask: True
#    Detector has a dark current: False
#    detector has a flat field: False
#
# Wavelength: 1.12713e-10 m
# Mask applied: from detector
# Dark current applied: False
# Flat field applied: False
# Polarization factor: None
# Normalization factor: 1.0
# --> ROCK\\WAM39B_integrated\wam39b_rampe_1_xrd_000028_integrated.dat
#       2th_deg             I
  2.502596e+01    4.831549e+03
  2.511750e+01    1.981917e+04
  2.520905e+01    2.009619e+04
  2.530059e+01    2.020114e+04
  2.539213e+01    1.966406e+04
  2.548367e+01    1.954502e+04
  2.557521e+01    1.950470e+04
  2.566675e+01    1.948755e+04
  2.575829e+01    1.934775e+04
  2.584984e+01    1.905433e+04
  2.594138e+01    1.912616e+04
  2.603292e+01    1.961544e+04
  2.612446e+01    2.099749e+04
  2.621600e+01    2.716975e+04
  2.630754e+01    5.114171e+04
  2.639908e+01    4.698389e+04
  2.649063e+01    2.439046e+04
  2.658217e+01    1.965778e+04
  2.667371e+01    1.829106e+04
  2.676525e+01    1.769604e+04
  2.685679e+01    1.732741e+04
  2.694833e+01    1.703307e+04
  2.703988e+01    1.679560e+04
  2.713142e+01    1.661481e+04
  2.722296e+01    1.640593e+04
  2.731450e+01    1.624700e+04
  2.740604e+01    1.604910e+04
  2.749758e+01    1.594069e+04
  2.758912e+01    1.584152e+04
  2.768067e+01    1.577999e+04
  2.777221e+01    1.596074e+04
  2.786375e+01    1.739591e+04
  2.795529e+01    2.052081e+04
  2.804683e+01    1.690975e+04
  2.813837e+01    1.524917e+04
  2.822991e+01    1.481044e+04
  2.832146e+01    1.456136e+04
  2.841300e+01    1.434243e+04
  2.850454e+01    1.417106e+04
  2.859608e+01    1.400003e+04
  2.868762e+01    1.379649e+04
  2.877916e+01    1.361129e+04
  2.887070e+01    1.343392e+04
  2.896225e+01    1.323655e+04
  2.905379e+01    1.304894e+04
  2.914533e+01    1.287940e+04
  2.923687e+01    1.275324e+04
  2.932841e+01    1.269765e+04
  2.941995e+01    1.318451e+04
  2.951149e+01    1.403898e+04
  2.960304e+01    1.260593e+04
  2.969458e+01    1.207106e+04
  2.978612e+01    1.188652e+04
  2.987766e+01    1.179195e+04
  2.996920e+01    1.178766e+04
  3.006074e+01    1.183065e+04
  3.015228e+01    1.199324e+04
  3.024383e+01    1.244433e+04
  3.033537e+01    1.403424e+04
  3.042691e+01    2.265687e+04
  3.051845e+01    5.885664e+04
  3.060999e+01    3.277232e+04
  3.070153e+01    1.606781e+04
  3.079308e+01    1.376968e+04
  3.088462e+01    1.770479e+04
  3.097616e+01    2.903930e+04
  3.106770e+01    1.701265e+04
  3.115924e+01    1.197557e+04
  3.125078e+01    1.104960e+04
  3.134232e+01    1.070489e+04
  3.143387e+01    1.052488e+04
  3.152541e+01    1.038278e+04
  3.161695e+01    1.026898e+04
  3.170849e+01    1.017968e+04
  3.180003e+01    1.008279e+04
  3.189157e+01    1.001839e+04
  3.198311e+01    9.945815e+03
  3.207466e+01    9.900053e+03
  3.216620e+01    9.865663e+03
  3.225774e+01    9.977643e+03
  3.234928e+01    1.089978e+04
  3.244082e+01    1.074125e+04
  3.253236e+01    9.766589e+03
  3.262390e+01    9.558436e+03
  3.271545e+01    9.475341e+03
  3.280699e+01    9.403435e+03
  3.289853e+01    9.359186e+03
  3.299007e+01    9.283423e+03
  3.308161e+01    9.245837e+03
  3.317315e+01    9.210361e+03
  3.326469e+01    9.182788e+03
  3.335624e+01    9.191758e+03
  3.344778e+01    9.254698e+03
  3.353932e+01    9.532648e+03
  3.363086e+01    1.130124e+04
  3.372240e+01    2.014256e+04
  3.381394e+01    1.639147e+04
  3.390549e+01    1.013021e+04
  3.399703e+01    9.128582e+03
  3.408857e+01    8.863343e+03
  3.418011e+01    8.728255e+03
  3.427165e+01    8.643812e+03
  3.436319e+01    8.579640e+03
  3.445473e+01    8.501789e+03
  3.454628e+01    8.458601e+03
  3.463782e+01    8.409942e+03
  3.472936e+01    8.422046e+03
  3.482090e+01    8.355004e+03
  3.491244e+01    8.274160e+03
  3.500398e+01    8.226932e+03
  3.509552e+01    8.177458e+03
  3.518707e+01    8.149667e+03
  3.527861e+01    8.104759e+03
  3.537015e+01    8.062546e+03
  3.546169e+01    8.034594e+03
  3.555323e+01    7.990821e+03
  3.564477e+01    7.962032e+03
  3.573631e+01    7.953961e+03
  3.582786e+01    7.938907e+03
  3.591940e+01    7.959938e+03
  3.601094e+01    7.998171e+03
  3.610248e+01    8.097546e+03
  3.619402e+01    8.557937e+03
  3.628556e+01    1.133281e+04
  3.637710e+01    1.196269e+04
  3.646865e+01    8.758582e+03
  3.656019e+01    8.228820e+03
  3.665173e+01    8.123442e+03
  3.674327e+01    8.122210e+03
  3.683481e+01    8.162625e+03
  3.692635e+01    8.222040e+03
  3.701790e+01    8.323683e+03
  3.710944e+01    8.502054e+03
  3.720098e+01    8.812041e+03
  3.729252e+01    9.472391e+03
  3.738406e+01    1.176479e+04
  3.747560e+01    2.674855e+04
  3.756714e+01    6.919796e+04
  3.765869e+01    3.027097e+04
  3.775023e+01    1.232996e+04
  3.784177e+01    9.686706e+03
  3.793331e+01    8.933358e+03
  3.802485e+01    8.587779e+03
  3.811639e+01    8.425512e+03
  3.820793e+01    8.318705e+03
  3.829948e+01    8.257571e+03
  3.839102e+01    8.221856e+03
  3.848256e+01    8.218486e+03
  3.857410e+01    8.302631e+03
  3.866564e+01    8.736153e+03
  3.875718e+01    1.036086e+04
  3.884872e+01    9.106800e+03
  3.894027e+01    8.275071e+03
  3.903181e+01    8.144078e+03
  3.912335e+01    8.096946e+03
  3.921489e+01    8.064125e+03
  3.930643e+01    8.028990e+03
  3.939797e+01    8.011884e+03
  3.948951e+01    7.969445e+03
  3.958106e+01    7.937743e+03
  3.967260e+01    7.909556e+03
  3.976414e+01    7.902616e+03
  3.985568e+01    8.081770e+03
  3.994722e+01    8.410816e+03
  4.003876e+01    7.968249e+03
  4.013031e+01    7.830926e+03
  4.022185e+01    7.790271e+03
  4.031339e+01    7.776260e+03
  4.040493e+01    7.759440e+03
  4.049647e+01    7.741136e+03
  4.058801e+01    7.727097e+03
  4.067955e+01    7.739488e+03
  4.077110e+01    7.780020e+03
  4.086264e+01    7.927847e+03
  4.095418e+01    8.774650e+03
  4.104572e+01    1.320687e+04
  4.113726e+01    1.158380e+04
  4.122880e+01    8.318499e+03
  4.132034e+01    7.852515e+03
  4.141189e+01    7.704620e+03
  4.150343e+01    7.649362e+03
  4.159497e+01    7.620365e+03
  4.168651e+01    7.627247e+03
  4.177805e+01    7.601260e+03
  4.186959e+01    7.596356e+03
  4.196113e+01    7.607343e+03
  4.205268e+01    7.731850e+03
  4.214422e+01    8.545502e+03
  4.223576e+01    8.571801e+03
  4.232730e+01    7.729457e+03
  4.241884e+01    7.592174e+03
  4.251038e+01    7.553557e+03
  4.260192e+01    7.548013e+03
  4.269347e+01    7.559466e+03
  4.278501e+01    7.562528e+03
  4.287655e+01    7.585718e+03
  4.296809e+01    7.662368e+03
  4.305963e+01    7.804881e+03
  4.315117e+01    8.468998e+03
  4.324272e+01    1.208717e+04
  4.333426e+01    1.146218e+04
  4.342580e+01    8.716388e+03
  4.351734e+01    9.034878e+03
  4.360888e+01    1.357373e+04
  4.370042e+01    2.734792e+04
  4.379196e+01    1.432266e+04
  4.388351e+01    9.150874e+03
  4.397505e+01    8.279060e+03
  4.406659e+01    8.241989e+03
  4.415813e+01    8.938729e+03
  4.424967e+01    1.417011e+04
  4.434121e+01    3.009132e+04
  4.443275e+01    1.645849e+04
  4.452430e+01    9.141387e+03
  4.461584e+01    8.018284e+03
  4.470738e+01    7.675804e+03
  4.479892e+01    7.542147e+03
  4.489046e+01    7.462573e+03
  4.498200e+01    7.438327e+03
  4.507354e+01    7.457741e+03
  4.516509e+01    7.566039e+03
  4.525663e+01    8.172183e+03
  4.534817e+01    1.196403e+04
  4.543971e+01    1.208408e+04
  4.553125e+01    8.166354e+03
  4.562279e+01    7.453984e+03
  4.571433e+01    7.309215e+03
  4.580588e+01    7.238073e+03
  4.589742e+01    7.190879e+03
  4.598896e+01    7.153541e+03
  4.608050e+01    7.122858e+03
  4.617204e+01    7.148894e+03
  4.626358e+01    7.280599e+03
  4.635513e+01    8.184127e+03
  4.644667e+01    8.938063e+03
  4.653821e+01    7.573530e+03
  4.662975e+01    7.212914e+03
  4.672129e+01    7.164799e+03
  4.681283e+01    7.198603e+03
  4.690437e+01    7.216046e+03
  4.699592e+01    7.238704e+03
  4.708746e+01    7.291054e+03
  4.717900e+01    7.360542e+03
  4.727054e+01    7.525241e+03
  4.736208e+01    8.221411e+03
  4.745362e+01    8.879606e+03
  4.754516e+01    8.192631e+03
  4.763671e+01    8.215229e+03
  4.772825e+01    8.026847e+03
  4.781979e+01    7.614869e+03
  4.788844e+01    3.069999e+03