File: Output/ROCK_XRD/WAM39B_integrated/rampe1/wam39b_rampe_1_xrd_000017_integrated.dat
# == pyFAI calibration ==
# Distance Sample to Detector: 0.261615 m
# PONI: 2.023e-01, 2.348e-01 m
# Rotations: -0.026380 0.002005 0.000000 rad
#
# == Fit2d calibration ==
# Distance Sample-beamCenter: 261.707 mm
# Center: x=6119.331, y=5134.776 pix
# Tilt: 1.516 deg  TiltPlanRot: 4.347 deg
#
# Detector Rayonix SX165	 PixelSize= 3.950e-05, 3.950e-05 m
#    Detector has a mask: True
#    Detector has a dark current: False
#    detector has a flat field: False
#
# Wavelength: 1.12713e-10 m
# Mask applied: from detector
# Dark current applied: False
# Flat field applied: False
# Polarization factor: None
# Normalization factor: 1.0
# --> ROCK\\WAM39B_integrated\wam39b_rampe_1_xrd_000017_integrated.dat
#       2th_deg             I
  2.502596e+01    4.359155e+03
  2.511750e+01    1.796383e+04
  2.520905e+01    1.829797e+04
  2.530059e+01    1.850292e+04
  2.539213e+01    1.830621e+04
  2.548367e+01    1.886125e+04
  2.557521e+01    1.980149e+04
  2.566675e+01    2.046229e+04
  2.575829e+01    2.046714e+04
  2.584984e+01    1.954234e+04
  2.594138e+01    1.912919e+04
  2.603292e+01    1.945500e+04
  2.612446e+01    2.023212e+04
  2.621600e+01    2.183413e+04
  2.630754e+01    2.680698e+04
  2.639908e+01    3.041437e+04
  2.649063e+01    2.354507e+04
  2.658217e+01    2.159684e+04
  2.667371e+01    2.099452e+04
  2.676525e+01    2.012094e+04
  2.685679e+01    1.888617e+04
  2.694833e+01    1.767738e+04
  2.703988e+01    1.676346e+04
  2.713142e+01    1.615823e+04
  2.722296e+01    1.569688e+04
  2.731450e+01    1.541652e+04
  2.740604e+01    1.518831e+04
  2.749758e+01    1.512608e+04
  2.758912e+01    1.516735e+04
  2.768067e+01    1.538877e+04
  2.777221e+01    1.594532e+04
  2.786375e+01    1.717356e+04
  2.795529e+01    1.979000e+04
  2.804683e+01    1.973747e+04
  2.813837e+01    1.570477e+04
  2.822991e+01    1.422613e+04
  2.832146e+01    1.356327e+04
  2.841300e+01    1.314689e+04
  2.850454e+01    1.285803e+04
  2.859608e+01    1.263492e+04
  2.868762e+01    1.240829e+04
  2.877916e+01    1.221588e+04
  2.887070e+01    1.204269e+04
  2.896225e+01    1.185845e+04
  2.905379e+01    1.168401e+04
  2.914533e+01    1.152207e+04
  2.923687e+01    1.141029e+04
  2.932841e+01    1.132509e+04
  2.941995e+01    1.138556e+04
  2.951149e+01    1.227970e+04
  2.960304e+01    1.231393e+04
  2.969458e+01    1.109608e+04
  2.978612e+01    1.078991e+04
  2.987766e+01    1.067590e+04
  2.996920e+01    1.064435e+04
  3.006074e+01    1.067565e+04
  3.015228e+01    1.073854e+04
  3.024383e+01    1.082877e+04
  3.033537e+01    1.105220e+04
  3.042691e+01    1.137371e+04
  3.051845e+01    1.187463e+04
  3.060999e+01    1.265556e+04
  3.070153e+01    1.376472e+04
  3.079308e+01    1.514005e+04
  3.088462e+01    1.709982e+04
  3.097616e+01    2.476487e+04
  3.106770e+01    2.942416e+04
  3.115924e+01    1.651861e+04
  3.125078e+01    1.269457e+04
  3.134232e+01    1.145232e+04
  3.143387e+01    1.082381e+04
  3.152541e+01    1.042559e+04
  3.161695e+01    1.014774e+04
  3.170849e+01    9.957985e+03
  3.180003e+01    9.805538e+03
  3.189157e+01    9.669486e+03
  3.198311e+01    9.546758e+03
  3.207466e+01    9.456509e+03
  3.216620e+01    9.364144e+03
  3.225774e+01    9.303367e+03
  3.234928e+01    9.497538e+03
  3.244082e+01    1.050646e+04
  3.253236e+01    9.693896e+03
  3.262390e+01    8.976063e+03
  3.271545e+01    8.796070e+03
  3.280699e+01    8.693426e+03
  3.289853e+01    8.634273e+03
  3.299007e+01    8.564681e+03
  3.308161e+01    8.530915e+03
  3.317315e+01    8.499034e+03
  3.326469e+01    8.496057e+03
  3.335624e+01    8.490688e+03
  3.344778e+01    8.509091e+03
  3.353932e+01    8.628236e+03
  3.363086e+01    9.106803e+03
  3.372240e+01    1.201156e+04
  3.381394e+01    2.060361e+04
  3.390549e+01    1.353023e+04
  3.399703e+01    9.278875e+03
  3.408857e+01    8.597153e+03
  3.418011e+01    8.418209e+03
  3.427165e+01    8.318255e+03
  3.436319e+01    8.214847e+03
  3.445473e+01    8.099727e+03
  3.454628e+01    8.011941e+03
  3.463782e+01    7.958946e+03
  3.472936e+01    7.938141e+03
  3.482090e+01    7.977662e+03
  3.491244e+01    8.066531e+03
  3.500398e+01    8.196426e+03
  3.509552e+01    8.178781e+03
  3.518707e+01    7.981042e+03
  3.527861e+01    7.793700e+03
  3.537015e+01    7.658668e+03
  3.546169e+01    7.563657e+03
  3.555323e+01    7.498943e+03
  3.564477e+01    7.449759e+03
  3.573631e+01    7.413665e+03
  3.582786e+01    7.398864e+03
  3.591940e+01    7.403051e+03
  3.601094e+01    7.424525e+03
  3.610248e+01    7.469682e+03
  3.619402e+01    7.614865e+03
  3.628556e+01    8.268249e+03
  3.637710e+01    1.149578e+04
  3.646865e+01    1.069497e+04
  3.656019e+01    8.287054e+03
  3.665173e+01    7.662220e+03
  3.674327e+01    7.592716e+03
  3.683481e+01    7.590240e+03
  3.692635e+01    7.616665e+03
  3.701790e+01    7.692987e+03
  3.710944e+01    7.832999e+03
  3.720098e+01    8.069472e+03
  3.729252e+01    8.450693e+03
  3.738406e+01    9.352089e+03
  3.747560e+01    1.250554e+04
  3.756714e+01    3.232866e+04
  3.765869e+01    6.636655e+04
  3.775023e+01    2.541332e+04
  3.784177e+01    1.155352e+04
  3.793331e+01    9.164488e+03
  3.802485e+01    8.390377e+03
  3.811639e+01    8.066449e+03
  3.820793e+01    7.910835e+03
  3.829948e+01    7.840327e+03
  3.839102e+01    7.764566e+03
  3.848256e+01    7.713913e+03
  3.857410e+01    7.692700e+03
  3.866564e+01    7.747900e+03
  3.875718e+01    8.319771e+03
  3.884872e+01    9.821113e+03
  3.894027e+01    8.388963e+03
  3.903181e+01    7.674859e+03
  3.912335e+01    7.548014e+03
  3.921489e+01    7.517420e+03
  3.930643e+01    7.496037e+03
  3.939797e+01    7.473231e+03
  3.948951e+01    7.460725e+03
  3.958106e+01    7.442776e+03
  3.967260e+01    7.420243e+03
  3.976414e+01    7.397392e+03
  3.985568e+01    7.425357e+03
  3.994722e+01    7.670105e+03
  4.003876e+01    7.964053e+03
  4.013031e+01    7.614608e+03
  4.022185e+01    7.603088e+03
  4.031339e+01    7.704001e+03
  4.040493e+01    7.746779e+03
  4.049647e+01    7.659377e+03
  4.058801e+01    7.508946e+03
  4.067955e+01    7.414311e+03
  4.077110e+01    7.366422e+03
  4.086264e+01    7.401202e+03
  4.095418e+01    7.584121e+03
  4.104572e+01    8.602623e+03
  4.113726e+01    1.305181e+04
  4.122880e+01    1.103846e+04
  4.132034e+01    8.138950e+03
  4.141189e+01    7.698346e+03
  4.150343e+01    7.516688e+03
  4.159497e+01    7.431689e+03
  4.168651e+01    7.396510e+03
  4.177805e+01    7.370968e+03
  4.186959e+01    7.365639e+03
  4.196113e+01    7.388260e+03
  4.205268e+01    7.425408e+03
  4.214422e+01    7.564448e+03
  4.223576e+01    8.384088e+03
  4.232730e+01    8.297352e+03
  4.241884e+01    7.419452e+03
  4.251038e+01    7.210453e+03
  4.260192e+01    7.139346e+03
  4.269347e+01    7.098646e+03
  4.278501e+01    7.075000e+03
  4.287655e+01    7.070340e+03
  4.296809e+01    7.096291e+03
  4.305963e+01    7.142870e+03
  4.315117e+01    7.310485e+03
  4.324272e+01    8.028188e+03
  4.333426e+01    1.157820e+04
  4.342580e+01    1.093045e+04
  4.351734e+01    8.031026e+03
  4.360888e+01    7.688820e+03
  4.370042e+01    7.851916e+03
  4.379196e+01    8.129896e+03
  4.388351e+01    8.384893e+03
  4.397505e+01    8.639616e+03
  4.406659e+01    9.059569e+03
  4.415813e+01    9.606565e+03
  4.424967e+01    1.066847e+04
  4.434121e+01    1.577846e+04
  4.443275e+01    3.084017e+04
  4.452430e+01    1.798952e+04
  4.461584e+01    1.001171e+04
  4.470738e+01    8.489759e+03
  4.479892e+01    7.988882e+03
  4.489046e+01    7.698617e+03
  4.498200e+01    7.527120e+03
  4.507354e+01    7.407189e+03
  4.516509e+01    7.358607e+03
  4.525663e+01    7.445794e+03
  4.534817e+01    8.063934e+03
  4.543971e+01    1.162821e+04
  4.553125e+01    1.227051e+04
  4.562279e+01    8.217457e+03
  4.571433e+01    7.422477e+03
  4.580588e+01    7.241167e+03
  4.589742e+01    7.166588e+03
  4.598896e+01    7.129191e+03
  4.608050e+01    7.086520e+03
  4.617204e+01    7.064949e+03
  4.626358e+01    7.058858e+03
  4.635513e+01    7.149110e+03
  4.644667e+01    7.934882e+03
  4.653821e+01    8.850835e+03
  4.662975e+01    7.512227e+03
  4.672129e+01    7.167649e+03
  4.681283e+01    7.182444e+03
  4.690437e+01    7.167620e+03
  4.699592e+01    7.084495e+03
  4.708746e+01    7.028451e+03
  4.717900e+01    6.983658e+03
  4.727054e+01    7.017760e+03
  4.736208e+01    7.155086e+03
  4.745362e+01    7.832101e+03
  4.754516e+01    8.715684e+03
  4.763671e+01    8.012130e+03
  4.772825e+01    7.631646e+03
  4.781979e+01    7.312804e+03
  4.788844e+01    2.969630e+03